SpectraSuite Data File
++++++++++++++++++++++++++++++++++++
Date: Wed Jul 12 16:55:21 CDT 2017
User: Owner
Dark Spectrum Present: Yes
Reference Spectrum Present: Yes
Number of Sampled Component Spectra: 1
Spectrometers: USB4H04489
Integration Time (usec): 37000 (USB4H04489)
Spectra Averaged: 20 (USB4H04489)
Boxcar Smoothing: 0 (USB4H04489)
Correct for Electrical Dark: No (USB4H04489)
Strobe/Lamp Enabled: No (USB4H04489)
Correct for Detector Non-linearity: No (USB4H04489)
Correct for Stray Light: No (USB4H04489)
Number of Pixels in Processed Spectrum: 3648
>>>>>Begin Processed Spectral Data<<<<<
580.28	-1.33
580.38	-1.33
580.48	-1.33
580.59	6.86
580.69	-11.98
580.79	-6.04
580.90	-22.53
581.00	-10.14
581.11	-3.17
581.21	3.07
581.31	-21.30
581.42	5.63
581.52	6.96
581.62	-4.92
581.73	23.14
581.83	20.79
581.93	32.46
582.04	118.07
582.14	7447.64
582.25	11592.63
582.35	11760.26
582.45	12065.81
582.56	12303.58
582.66	12705.91
582.76	13158.40
582.87	13518.95
582.97	13981.07
583.07	13892.60
583.18	14343.15
583.28	14421.08
583.38	14494.91
583.49	14248.13
583.59	14254.17
583.70	13775.46
583.80	13455.36
583.90	13139.56
584.01	13162.40
584.11	13052.11
584.21	13500.93
584.32	13487.72
584.42	13979.33
584.52	13906.94
584.63	13978.51
584.73	13918.61
584.83	14230.41
584.94	14093.40
585.04	13709.41
585.14	13310.06
585.25	12850.29
585.35	12264.26
585.45	12123.77
585.56	11821.49
585.66	12414.58
585.76	12023.62
585.87	11389.47
585.97	10614.31
586.07	9785.09
586.18	9112.74
586.28	8990.79
586.38	9143.26
586.49	9723.35
586.59	9990.61
586.69	10397.74
586.80	10532.19
586.90	11125.39
587.00	11240.99
587.11	11617.61
587.21	11857.02
587.31	12131.55
587.41	12400.35
587.52	12841.17
587.62	13119.49
587.72	13547.11
587.83	13845.70
587.93	14380.53
588.03	14744.56
588.14	14772.00
588.24	15090.05
588.34	15414.75
588.45	15305.39
588.55	15569.89
588.65	15400.11
588.75	14989.49
588.86	14616.15
588.96	14359.84
589.06	13904.27
589.17	14265.13
589.27	14400.50
589.37	14669.40
589.48	15031.48
589.58	15248.87
589.68	15391.00
589.78	15544.90
589.89	15328.33
589.99	15744.99
590.09	15714.58
590.20	15293.31
590.30	14813.06
590.40	14352.98
590.50	13679.10
590.61	13462.12
590.71	13424.13
590.81	14192.01
590.92	13795.32
591.02	13337.19
591.12	12448.27
591.22	11292.70
591.33	10290.02
591.43	10037.91
591.53	9790.21
591.64	10076.52
591.74	10453.34
591.84	10949.57
591.94	11145.15
592.05	11357.63
592.15	11783.50
592.25	12171.28
592.35	12229.65
592.46	12661.36
592.56	12869.85
592.66	13522.33
592.76	13800.14
592.87	14125.86
592.97	14201.84
593.07	14787.26
593.18	14594.85
593.28	14816.95
593.38	14741.59
593.48	14876.04
593.59	14822.38
593.69	15273.03
593.79	15156.20
593.89	15079.30
594.00	14602.63
594.10	14422.92
594.20	13942.78
594.30	13855.23
594.41	13928.24
594.51	14152.80
594.61	14226.52
594.71	14719.06
594.82	15074.69
594.92	15208.73
595.02	15353.62
595.12	15421.41
595.23	15625.08
595.33	15626.41
595.43	15483.26
595.53	15237.60
595.64	14645.33
595.74	14190.38
595.84	13454.85
595.94	13396.58
596.04	13344.36
596.15	13192.61
596.25	12070.73
596.35	11340.32
596.45	9915.55
596.56	8841.39
596.66	8201.09
596.76	8226.69
596.86	8332.37
596.97	8778.31
597.07	9002.26
597.17	9336.79
597.27	9499.81
597.37	10014.36
597.48	10148.20
597.58	10550.62
597.68	10494.71
597.78	10981.93
597.89	11127.95
597.99	11580.96
598.09	11744.38
598.19	12174.46
598.29	12479.81
598.40	13064.50
598.50	13469.49
598.60	13641.62
598.70	13911.44
598.80	14254.37
598.91	14403.57
599.01	14449.96
599.11	14633.15
599.21	15043.87
599.31	14352.37
599.42	14063.09
599.52	13766.55
599.62	13379.58
599.72	12947.57
599.82	13063.58
599.93	13356.03
600.03	13645.21
600.13	13920.66
600.23	14213.82
600.33	14361.59
600.44	14450.67
600.54	14431.83
600.64	14650.86
600.74	14507.81
600.84	14655.26
600.95	13942.57
601.05	13501.95
601.15	12747.58
601.25	12301.33
601.35	11828.97
601.46	12324.88
601.56	12197.29
601.66	12005.60
601.76	10701.76
601.86	9943.61
601.96	8567.88
602.07	7630.73
602.17	7289.03
602.27	7386.72
602.37	7598.17
602.47	7902.29
602.57	8142.42
602.68	8335.95
602.78	8382.54
602.88	8747.39
602.98	8926.38
603.08	8959.86
603.18	9118.38
603.29	9356.76
603.39	9412.05
603.49	9627.71
603.59	9675.73
603.69	10017.43
603.79	10203.08
603.90	10579.50
604.00	10658.45
604.10	11114.94
604.20	11327.52
604.30	11484.50
604.40	11434.63
604.51	11524.12
604.61	11500.16
604.71	11864.70
604.81	11554.23
604.91	11455.42
605.01	10897.24
605.11	10647.18
605.22	10023.78
605.32	10221.92
605.42	10168.68
605.52	10481.30
605.62	10465.22
605.72	10730.33
605.83	10620.46
605.93	11133.99
606.03	11057.70
606.13	11219.69
606.23	11131.02
606.33	11236.69
606.43	10944.45
606.53	10635.92
606.64	9857.49
606.74	9649.41
606.84	8905.39
606.94	8794.29
607.04	8875.38
607.14	9203.67
607.24	8842.62
607.35	7963.22
607.45	7035.18
607.55	6126.60
607.65	4998.37
607.75	4657.70
607.85	4655.54
607.95	4814.57
608.05	4890.04
608.16	5067.60
608.26	5004.83
608.36	5183.20
608.46	5195.39
608.56	5309.87
608.66	5270.65
608.76	5304.44
608.86	5379.40
608.96	5481.18
609.07	5403.87
609.17	5492.04
609.27	5526.55
609.37	5604.98
609.47	5729.19
609.57	5984.06
609.67	6074.07
609.77	6266.48
609.87	6319.11
609.98	6471.17
610.08	6407.89
610.18	6516.02
610.28	6630.30
610.38	6795.47
610.48	6711.60
610.58	6637.77
610.68	6388.95
610.78	6327.92
610.88	6088.61
610.98	6001.37
611.09	6033.73
611.19	6305.80
611.29	6259.10
611.39	6479.16
611.49	6508.96
611.59	6658.46
611.69	6789.02
611.79	6936.27
611.89	6927.87
611.99	7022.48
612.09	7150.28
612.20	7053.20
612.30	6854.14
612.40	6690.61
612.50	6418.33
612.60	6253.37
612.70	6067.72
612.80	6347.58
612.90	6545.62
613.00	6378.19
613.10	6047.96
613.20	5637.85
613.30	5047.22
613.40	4586.53
613.50	4378.97
613.61	4431.19
613.71	4578.44
613.81	4691.59
613.91	4866.69
614.01	4980.97
614.11	5072.10
614.21	5134.16
614.31	5235.12
614.41	5337.52
614.51	5517.23
614.61	5663.35
614.71	5681.99
614.81	5886.27
614.91	5907.47
615.01	5929.07
615.11	6012.63
615.22	6174.01
615.32	6296.17
615.42	6447.72
615.52	6573.67
615.62	6647.30
615.72	6669.21
615.82	6690.51
615.92	6714.16
616.02	6822.30
616.12	6690.00
616.22	6776.63
616.32	6617.40
616.42	6567.22
616.52	6442.60
616.62	6192.85
616.72	6203.71
616.82	6179.85
616.92	6158.65
617.02	6370.00
617.12	6263.20
617.22	6437.58
617.32	6192.65
617.42	6162.24
617.52	6246.10
617.62	6376.56
617.72	6320.95
617.83	6347.58
617.93	6258.80
618.03	6161.52
618.13	5875.52
618.23	5666.83
618.33	5575.59
618.43	5615.33
618.53	5501.77
618.63	5552.66
618.73	5483.64
618.83	5499.31
618.93	5204.40
619.03	4912.05
619.13	4565.43
619.23	4367.50
619.33	4193.52
619.43	4171.61
619.53	4238.68
619.63	4278.51
619.73	4428.73
619.83	4408.05
619.93	4438.77
620.03	4519.97
620.13	4575.98
620.23	4603.32
620.33	4575.88
620.43	4782.01
620.53	4784.67
620.63	5048.24
620.73	5149.52
620.83	5383.80
620.93	5494.80
621.03	5714.86
621.13	5769.13
621.23	5992.25
621.33	5986.62
621.43	6172.37
621.53	6183.64
621.63	6422.12
621.73	6719.80
621.83	6886.29
621.93	7027.91
622.03	7312.58
622.13	7485.12
622.23	7754.02
622.33	7725.76
622.43	8058.65
622.53	7969.77
622.63	8100.13
622.73	8102.58
622.83	8127.98
622.93	8058.76
623.03	8041.25
623.13	7874.24
623.23	7901.27
623.33	7775.32
623.42	8009.50
623.52	8148.15
623.62	8383.77
623.72	8483.40
623.82	8444.08
623.92	8326.73
624.02	7969.67
624.12	7643.12
624.22	7385.79
624.32	7449.49
624.42	7581.58
624.52	7496.79
624.62	7541.13
624.72	7311.86
624.82	7108.19
624.92	6717.54
625.02	6691.94
625.12	6865.30
625.22	7043.78
625.32	7179.36
625.42	7482.36
625.52	7354.26
625.62	7189.70
625.72	6976.30
625.82	6854.24
625.91	6655.39
626.01	6814.51
626.11	7101.43
626.21	7439.66
626.31	7643.12
626.41	8009.50
626.51	8021.48
626.61	8355.81
626.71	8495.38
626.81	8664.44
626.91	8763.98
627.01	9106.91
627.11	9310.07
627.21	9744.03
627.31	10329.85
627.41	10983.36
627.51	11054.22
627.60	10943.32
627.70	10602.03
627.80	10227.25
627.90	9494.90
628.00	9164.15
628.10	9254.77
628.20	9703.28
628.30	9921.08
628.40	10351.66
628.50	10606.53
628.60	11170.95
628.70	11382.20
628.80	12067.66
628.89	12149.88
628.99	12755.36
629.09	13057.85
629.19	13549.98
629.29	13881.23
629.39	14279.05
629.49	14345.71
629.59	14692.64
629.69	14707.18
629.79	14772.72
629.89	14740.15
629.98	14779.99
630.08	14520.61
630.18	14572.53
630.28	14587.37
630.38	15068.75
630.48	15262.08
630.58	15814.82
630.68	16272.44
630.78	16742.86
630.88	16918.99
630.98	17272.47
631.07	17319.47
631.17	17518.53
631.27	17804.94
631.37	18369.46
631.47	18412.47
631.57	18637.23
631.67	18783.46
631.77	19120.86
631.87	19200.83
631.96	19765.77
632.06	20468.32
632.16	20025.55
632.26	18952.93
632.36	17303.80
632.46	14738.72
632.56	12054.04
632.66	9795.74
632.75	8752.61
632.85	7809.11
632.95	7499.35
633.05	7684.29
633.15	7778.39
633.25	7689.71
633.35	8001.00
633.45	7987.18
633.55	8094.19
633.64	8147.33
633.74	8197.61
633.84	8147.02
633.94	8288.95
634.04	8194.95
634.14	8162.08
634.24	8198.84
634.33	8501.02
634.43	8589.18
634.53	9013.42
634.63	9276.48
634.73	9606.92
634.83	9904.28
634.93	10303.95
635.02	10591.89
635.12	11184.98
635.22	11331.62
635.32	11974.99
635.42	12171.18
635.52	12641.50
635.62	13138.95
635.71	13565.54
635.81	13886.97
635.91	14368.65
636.01	14721.93
636.11	15106.23
636.21	15353.21
636.31	15825.06
636.40	15732.70
636.50	15810.42
636.60	15704.95
636.70	16068.36
636.80	15868.99
636.90	16053.00
636.99	15505.48
637.09	15317.37
637.19	14802.82
637.29	14407.77
637.39	13943.90
637.49	14350.32
637.58	14528.60
637.68	14991.85
637.78	15269.45
637.88	15834.79
637.98	15641.26
638.08	15935.76
638.17	15552.68
638.27	15377.69
638.37	15203.81
638.47	15602.25
638.57	15662.35
638.66	15616.58
638.76	15065.37
638.86	14616.66
638.96	13839.76
639.06	12839.13
639.16	12844.96
639.25	13071.77
639.35	13186.26
639.45	13783.03
639.55	13714.73
639.65	13219.95
639.74	12011.13
639.84	11185.60
639.94	10197.96
640.04	9261.53
640.14	8834.83
640.23	9333.72
640.33	9358.71
640.43	9791.13
640.53	9854.52
640.63	10266.47
640.73	10244.96
640.82	10520.93
640.92	10635.31
641.02	10669.00
641.12	10370.40
641.21	10684.46
641.31	10538.95
641.41	10702.79
641.51	10986.02
641.61	11429.00
641.70	11624.27
641.80	12461.28
641.90	12666.38
642.00	13464.88
642.10	13817.44
642.19	14729.09
642.29	15013.45
642.39	16072.97
642.49	16560.59
642.59	17414.49
642.68	17937.44
642.78	18731.64
642.88	19733.31
642.98	20398.79
643.07	21035.92
643.17	21874.76
643.27	22377.95
643.37	23482.32
643.46	23385.65
643.56	24321.68
643.66	24510.40
643.76	24642.59
643.86	24671.78
643.95	25058.95
644.05	25045.33
644.15	25691.87
644.25	25403.00
644.34	24837.56
644.44	24000.35
644.54	23457.33
644.64	22651.66
644.73	22832.70
644.83	22469.70
644.93	23429.89
645.03	23869.59
645.12	24370.21
645.22	24928.39
645.32	25538.07
645.42	25303.99
645.51	25201.18
645.61	24431.96
645.71	24880.57
645.81	25237.02
645.90	25740.61
646.00	25601.15
646.10	25280.84
646.20	24298.13
646.29	23260.01
646.39	21635.46
646.49	20872.39
646.59	21074.52
646.68	21526.20
646.78	22475.64
646.88	22941.35
646.98	22581.83
647.07	21150.70
647.17	19034.03
647.27	17563.48
647.37	15878.00
647.46	14631.30
647.56	14462.35
647.66	14936.76
647.75	15072.44
647.85	15498.93
647.95	16134.41
648.05	16311.15
648.14	16539.40
648.24	17116.41
648.34	17106.27
648.44	17699.77
648.53	17424.94
648.63	17525.90
648.73	17247.99
648.82	17243.49
648.92	17062.55
649.02	17470.71
649.12	17881.63
649.21	18266.65
649.31	19033.82
649.41	19876.87
649.50	20504.16
649.60	21706.01
649.70	22368.43
649.80	23408.39
649.89	24189.38
649.99	25451.85
650.09	26199.56
650.18	27362.91
650.28	28327.50
650.38	29625.92
650.47	30781.89
650.57	32013.44
650.67	32748.25
650.77	33880.47
650.86	34807.58
650.96	35857.88
651.06	36154.94
651.15	37092.91
651.25	37223.06
651.35	37541.83
651.44	37670.13
651.54	38575.64
651.64	37939.54
651.73	38630.02
651.83	37630.71
651.93	37293.31
652.03	35194.04
652.12	34271.84
652.22	33447.43
652.32	33648.74
652.41	33598.57
652.51	34857.25
652.61	35595.74
652.70	36554.71
652.80	36811.62
652.90	37967.29
652.99	37562.10
653.09	37994.12
653.19	36642.97
653.28	37240.57
653.38	37443.01
653.48	37955.82
653.57	38278.07
653.67	38231.48
653.77	36791.76
653.86	34687.06
653.96	32601.10
654.06	30474.70
654.15	29719.71
654.25	30388.89
654.35	31400.79
654.44	32522.56
654.54	32942.60
654.64	31465.40
654.73	28102.53
654.83	25278.08
654.93	22204.49
655.02	19872.98
655.12	17947.58
655.22	18098.10
655.31	18720.48
655.41	19439.83
655.51	19261.45
655.60	20140.75
655.70	20615.57
655.79	20742.24
655.89	20839.41
655.99	21234.77
656.08	21196.37
656.18	21130.74
656.28	20784.43
656.37	21063.67
656.47	20590.59
656.57	21150.81
656.66	21060.29
656.76	21958.12
656.85	22511.48
656.95	23383.20
657.05	24330.59
657.14	25359.59
657.24	26213.69
657.34	27508.52
657.43	28367.85
657.53	29584.96
657.63	30394.31
657.72	31636.82
657.82	32758.59
657.91	33958.60
658.01	35504.61
658.11	37032.80
658.20	38557.62
658.30	39778.41
658.39	41060.95
658.49	42877.91
658.59	43807.28
658.68	45258.27
658.78	46256.45
658.88	46984.60
658.97	46729.73
659.07	47523.22
659.16	47509.09
659.26	48189.11
659.36	48007.77
659.45	48580.79
659.55	48122.56
659.64	47853.25
659.74	45524.19
659.84	44631.08
659.93	42334.79
660.03	41980.29
660.12	41520.01
660.22	42509.07
660.32	43142.71
660.41	44568.92
660.51	45333.73
660.60	46284.30
660.70	46819.64
660.80	47783.92
660.89	47079.63
660.99	46886.50
661.08	46283.58
661.18	47521.58
661.28	47579.54
661.37	48100.74
661.47	48046.68
661.56	47066.83
661.66	44846.32
661.75	41912.09
661.85	38891.95
661.95	37552.89
662.04	37582.27
662.14	38784.84
662.23	40336.89
662.33	41512.94
662.43	40757.24
662.52	38240.90
662.62	33910.78
662.71	30142.52
662.81	25650.71
662.90	22532.16
663.00	20829.38
663.10	21124.18
663.19	21535.62
663.29	22333.20
663.38	22343.95
663.48	23247.11
663.57	23491.12
663.67	23993.69
663.77	23703.09
663.86	23888.63
663.96	24052.88
664.05	23912.70
664.15	23310.70
664.24	23518.05
664.34	22782.22
664.43	22683.51
664.53	22524.58
664.63	22651.97
664.72	22852.67
664.82	23730.02
664.91	23966.97
665.01	25138.20
665.10	25712.15
665.20	27196.31
665.29	27735.64
665.39	29176.08
665.48	29909.76
665.58	31081.92
665.68	32077.54
665.77	32965.03
665.87	34044.82
665.96	35628.51
666.06	36533.20
666.15	38476.83
666.25	39035.51
666.34	40061.75
666.44	41192.54
666.53	43212.86
666.63	43552.00
666.72	44617.97
666.82	45738.41
666.91	46426.84
667.01	46349.01
667.11	46575.31
667.20	46834.79
667.30	47060.48
667.39	47420.41
667.49	47945.61
667.58	47021.36
667.68	46842.68
667.77	44728.87
667.87	43739.19
667.96	41363.95
668.06	40496.64
668.15	40128.62
668.25	40599.14
668.34	41023.48
668.44	41998.31
668.53	42539.38
668.63	43582.41
668.72	44298.28
668.82	44738.18
668.91	45255.09
669.01	44779.14
669.10	43768.16
669.20	44914.31
669.29	44628.21
669.39	45204.20
669.48	45515.70
669.58	45925.80
669.67	44111.40
669.77	41759.62
669.86	38785.05
669.96	36827.50
670.05	34701.19
670.15	35702.14
670.24	36448.21
670.34	38473.76
670.43	39376.60
670.53	39838.11
670.62	37167.46
670.72	33554.23
670.81	29306.54
670.91	25517.69
671.00	21774.72
671.10	20454.29
671.19	20101.94
671.29	20857.54
671.38	21391.96
671.48	21863.19
671.57	22224.45
671.67	22865.06
671.76	23385.35
671.86	24204.43
671.95	23829.14
672.04	24627.44
672.14	24799.78
672.23	24853.02
672.33	24546.75
672.42	24679.76
672.52	24740.08
672.61	24786.98
672.71	24585.15
672.80	25172.71
672.90	25515.95
672.99	26267.55
673.09	26802.69
673.18	28075.30
673.28	28621.39
673.37	30381.82
673.46	31557.25
673.56	33301.61
673.65	34342.29
673.75	36124.53
673.84	37213.84
673.94	39284.03
674.03	41179.33
674.13	43826.84
674.22	46477.52
674.32	49928.66
674.41	50488.78
674.50	50606.74
674.60	48657.59
674.69	46507.02
674.79	42835.11
674.88	39603.62
674.98	36758.38
675.07	36572.63
675.17	35773.82
675.26	35698.45
675.35	35277.90
675.45	35752.62
675.54	35533.79
675.64	36065.45
675.73	35899.25
675.83	36489.38
675.92	36060.22
676.01	35025.80
676.11	33366.02
676.20	31971.04
676.30	30392.37
676.39	30101.86
676.49	29586.49
676.58	29955.02
676.67	30391.24
676.77	31344.47
676.86	31592.99
676.96	32280.80
677.05	32483.75
677.15	33512.35
677.24	33559.76
677.33	33622.94
677.43	33155.69
677.52	33236.59
677.62	33382.40
677.71	33939.35
677.80	34073.08
677.90	34703.44
677.99	32768.11
678.09	31386.55
678.18	29238.54
678.27	26917.89
678.37	24808.89
678.46	24614.23
678.56	25241.42
678.65	26370.26
678.74	27489.88
678.84	28622.62
678.93	27210.75
679.03	25312.79
679.12	21897.70
679.21	18368.95
679.31	14822.79
679.40	12214.70
679.50	10983.77
679.59	10820.44
679.68	10776.21
679.78	11185.60
679.87	11185.08
679.97	11501.19
680.06	11596.11
680.15	11903.72
680.25	11809.20
680.34	11778.59
680.44	11597.24
680.53	11495.15
680.62	11040.19
680.72	10683.54
680.81	10226.02
680.90	9949.34
681.00	9365.87
681.09	9170.19
681.19	8748.72
681.28	8633.93
681.37	8530.71
681.47	8644.17
681.56	8698.75
681.65	8963.24
681.75	9054.27
681.84	9378.16
681.94	9682.39
682.03	9986.82
682.12	10221.31
682.22	10531.68
682.31	10767.20
682.40	11113.51
682.50	11473.34
682.59	12001.81
682.68	12242.86
682.78	12815.98
682.87	13098.30
682.96	13726.61
683.06	13941.14
683.15	14393.94
683.25	14915.77
683.34	15380.35
683.43	15550.84
683.53	15961.25
683.62	16268.14
683.71	16624.59
683.81	16636.47
683.90	16848.95
683.99	16669.85
684.09	16935.98
684.18	17048.01
684.27	17172.01
684.37	17179.18
684.46	17162.49
684.55	16736.92
684.65	16056.18
684.74	15326.59
684.83	14694.28
684.93	14014.56
685.02	14021.11
685.11	13756.21
685.21	14279.26
685.30	14375.10
685.39	14880.85
685.49	15033.93
685.58	15397.24
685.67	15393.15
685.77	15959.51
685.86	15985.32
685.95	15817.90
686.05	15636.34
686.14	15832.03
686.23	15522.27
686.33	15852.71
686.42	15846.87
686.51	16001.70
686.61	15510.80
686.70	14894.06
686.79	13891.78
686.88	12923.30
686.98	11775.41
687.07	11469.55
687.16	11457.05
687.26	12016.97
687.35	12401.68
687.44	13083.86
687.54	12858.27
687.63	12362.77
687.72	10941.68
687.82	9542.72
687.91	7849.45
688.00	6382.29
688.09	5571.91
688.19	5265.94
688.28	5112.65
688.37	5184.43
688.47	5116.54
688.56	5112.04
688.65	5052.24
688.74	5038.11
688.84	5074.15
688.93	5059.10
689.02	5001.45
689.12	5055.72
689.21	4901.20
689.30	4776.17
689.39	4583.35
689.49	4452.39
689.58	4211.34
689.67	4005.11
689.77	3661.36
689.86	3538.48
689.95	3234.56
690.04	3064.07
690.14	2895.21
690.23	2845.75
690.32	2755.34
690.42	2810.63
690.51	2745.71
690.60	2741.41
690.69	2726.56
690.79	2707.41
690.88	2680.18
690.97	2636.55
691.06	2569.89
691.16	2599.79
691.25	2516.44
691.34	2561.80
691.43	2564.36
691.53	2584.54
691.62	2523.20
691.71	2525.86
691.80	2472.31
691.90	2421.21
691.99	2387.52
692.08	2454.18
692.18	2493.50
692.27	2580.03
692.36	2542.04
692.45	2559.86
692.55	2534.46
692.64	2544.60
692.73	2520.74
692.82	2519.62
692.91	2495.55
693.01	2548.49
693.10	2533.64
693.19	2521.36
693.28	2466.68
693.38	2497.40
693.47	2450.60
693.56	2472.92
693.65	2422.64
693.75	2481.93
693.84	2481.42
693.93	2495.04
694.02	2512.24
694.12	2518.39
694.21	2512.96
694.30	2571.84
694.39	2546.14
