SpectraSuite Data File
++++++++++++++++++++++++++++++++++++
Date: Wed Jul 12 16:29:54 CDT 2017
User: Owner
Dark Spectrum Present: Yes
Reference Spectrum Present: Yes
Number of Sampled Component Spectra: 1
Spectrometers: USB4H04489
Integration Time (usec): 50000 (USB4H04489)
Spectra Averaged: 20 (USB4H04489)
Boxcar Smoothing: 0 (USB4H04489)
Correct for Electrical Dark: No (USB4H04489)
Strobe/Lamp Enabled: No (USB4H04489)
Correct for Detector Non-linearity: No (USB4H04489)
Correct for Stray Light: No (USB4H04489)
Number of Pixels in Processed Spectrum: 3648
>>>>>Begin Processed Spectral Data<<<<<
580.28	13.82
580.38	13.82
580.48	13.82
580.59	-40.04
580.69	1.84
580.79	-7.99
580.90	13.93
581.00	-13.31
581.11	1.74
581.21	1.02
581.31	21.20
581.42	0.61
581.52	11.47
581.62	-4.10
581.73	3.79
581.83	16.08
581.93	30.62
582.04	64.20
582.14	3868.00
582.25	6090.04
582.35	6240.78
582.45	6340.41
582.56	6600.60
582.66	6864.28
582.76	7162.26
582.87	7401.97
582.97	7656.33
583.07	7616.70
583.18	7905.16
583.28	7937.52
583.38	8042.58
583.49	7952.88
583.59	7894.10
583.70	7640.36
583.80	7375.66
583.90	7220.32
584.01	7212.13
584.11	7177.72
584.21	7441.50
584.32	7384.67
584.42	7672.51
584.52	7635.54
584.63	7680.09
584.73	7659.40
584.83	7864.61
584.94	7814.43
585.04	7614.76
585.14	7360.50
585.25	7145.67
585.35	6769.77
585.45	6713.55
585.56	6628.97
585.66	6917.12
585.76	6736.59
585.87	6326.18
585.97	5777.52
586.07	5288.57
586.18	4780.16
586.28	4655.14
586.38	4773.20
586.49	5049.27
586.59	5229.49
586.69	5456.40
586.80	5529.62
586.90	5826.68
587.00	5887.60
587.11	6127.11
587.21	6228.69
587.31	6471.79
587.41	6666.96
587.52	6912.41
587.62	7118.43
587.72	7438.53
587.83	7629.61
587.93	8029.37
588.03	8162.49
588.14	8254.44
588.24	8371.89
588.34	8573.21
588.45	8601.78
588.55	8780.05
588.65	8628.60
588.75	8417.56
588.86	8159.11
588.96	8010.32
589.06	7718.08
589.17	7891.64
589.27	8003.97
589.37	8198.43
589.48	8375.07
589.58	8468.04
589.68	8536.14
589.78	8657.89
589.89	8570.85
589.99	8817.63
590.09	8890.74
590.20	8563.38
590.30	8285.98
590.40	8041.04
590.50	7687.87
590.61	7522.50
590.71	7524.95
590.81	8036.64
590.92	7768.76
591.02	7396.14
591.12	6799.05
591.22	6082.36
591.33	5398.14
591.43	5236.96
591.53	5132.72
591.64	5279.97
591.74	5528.70
591.84	5770.36
591.94	5872.04
592.05	6015.29
592.15	6261.25
592.25	6504.76
592.35	6537.73
592.46	6837.66
592.56	6966.06
592.66	7336.64
592.76	7577.28
592.87	7856.01
592.97	7950.83
593.07	8323.66
593.18	8325.50
593.28	8431.28
593.38	8437.22
593.48	8551.81
593.59	8583.55
593.69	8851.53
593.79	8816.20
593.89	8742.16
594.00	8477.87
594.10	8363.90
594.20	8079.34
594.30	7953.70
594.41	7981.75
594.51	8190.24
594.61	8220.96
594.71	8482.58
594.82	8776.37
594.92	8833.09
595.02	8881.94
595.12	9016.59
595.23	9078.65
595.33	9156.37
595.43	9071.48
595.53	8967.85
595.64	8625.84
595.74	8286.39
595.84	7904.34
595.94	7887.85
596.04	7990.56
596.15	7854.68
596.25	7149.25
596.35	6733.00
596.45	5828.31
596.56	5037.18
596.66	4585.50
596.76	4564.72
596.86	4651.14
596.97	4914.31
597.07	5015.78
597.17	5267.89
597.27	5325.85
597.37	5654.24
597.48	5723.25
597.58	5984.37
597.68	5947.20
597.78	6319.93
597.89	6478.34
597.99	6705.66
598.09	6946.40
598.19	7216.53
598.29	7430.54
598.40	7844.64
598.50	8169.96
598.60	8313.93
598.70	8491.90
598.80	8743.19
598.91	8816.20
599.01	8910.00
599.11	9050.90
599.21	9331.77
599.31	8913.99
599.42	8728.55
599.52	8539.52
599.62	8195.46
599.72	7966.70
599.82	8124.39
599.93	8212.25
600.03	8446.13
600.13	8594.40
600.23	8770.32
600.33	8862.48
600.44	8990.48
600.54	8948.39
600.64	9153.60
600.74	9068.41
600.84	9200.60
600.95	8787.32
601.05	8513.71
601.15	8009.91
601.25	7717.98
601.35	7509.49
601.46	7907.62
601.56	7865.12
601.66	7737.12
601.76	6831.10
601.86	6280.40
601.96	5288.26
602.07	4587.96
602.17	4349.48
602.27	4381.42
602.37	4522.53
602.47	4708.69
602.57	4858.09
602.68	4972.78
602.78	5018.85
602.88	5217.00
602.98	5327.38
603.08	5333.42
603.18	5422.41
603.29	5626.08
603.39	5657.41
603.49	5885.25
603.59	5897.23
603.69	6244.36
603.79	6341.43
603.90	6660.10
604.00	6770.89
604.10	7061.40
604.20	7189.50
604.30	7316.06
604.40	7249.40
604.51	7376.99
604.61	7476.62
604.71	7691.56
604.81	7485.22
604.91	7370.84
605.01	7075.12
605.11	6845.54
605.22	6372.36
605.32	6556.57
605.42	6470.25
605.52	6698.91
605.62	6683.75
605.72	6850.56
605.83	6777.04
605.93	7095.29
606.03	7045.93
606.13	7145.57
606.23	7174.34
606.33	7280.12
606.43	7083.82
606.53	6913.94
606.64	6350.24
606.74	6207.09
606.84	5729.29
606.94	5685.98
607.04	5828.72
607.14	6084.41
607.24	5808.55
607.35	5147.88
607.45	4497.34
607.55	3789.46
607.65	2953.89
607.75	2746.94
607.85	2740.69
607.95	2845.24
608.05	2898.59
608.16	2996.49
608.26	2954.30
608.36	3046.66
608.46	3013.18
608.56	3113.01
608.66	3060.79
608.76	3109.74
608.86	3129.09
608.96	3187.25
609.07	3147.32
609.17	3209.78
609.27	3240.81
609.37	3323.55
609.47	3449.29
609.57	3583.23
609.67	3662.28
609.77	3783.21
609.87	3854.89
609.98	3933.84
610.08	3931.69
610.18	3981.46
610.28	4053.54
610.38	4162.29
610.48	4200.08
610.58	4111.19
610.68	3957.29
610.78	3877.62
610.88	3717.88
610.98	3626.95
611.09	3665.76
611.19	3857.35
611.29	3839.63
611.39	3943.88
611.49	3937.42
611.59	4056.62
611.69	4148.67
611.79	4205.30
611.89	4226.09
611.99	4331.76
612.09	4426.17
612.20	4362.28
612.30	4207.35
612.40	4063.89
612.50	3886.12
612.60	3756.28
612.70	3704.06
612.80	3877.93
612.90	4025.90
613.00	3908.34
613.10	3649.38
613.20	3320.06
613.30	2928.49
613.40	2534.36
613.50	2442.61
613.61	2467.70
613.71	2550.23
613.81	2616.08
613.91	2698.30
614.01	2824.05
614.11	2816.06
614.21	2864.29
614.31	2910.16
614.41	3012.87
614.51	3054.24
614.61	3119.88
614.71	3161.76
614.81	3236.71
614.91	3306.45
615.01	3306.65
615.11	3391.74
615.22	3482.06
615.32	3579.34
615.42	3647.94
615.52	3794.78
615.62	3822.94
615.72	3784.34
615.82	3825.20
615.92	3869.84
616.02	3967.73
616.12	3871.68
616.22	3871.89
616.32	3854.79
616.42	3785.88
616.52	3731.40
616.62	3558.86
616.72	3566.44
616.82	3547.39
616.92	3489.84
617.02	3618.15
617.12	3566.23
617.22	3657.57
617.32	3497.42
617.42	3510.22
617.52	3540.43
617.62	3623.57
617.72	3560.91
617.83	3616.41
617.93	3578.31
618.03	3502.03
618.13	3349.15
618.23	3231.59
618.33	3146.50
618.43	3161.04
618.53	3119.16
618.63	3074.31
618.73	3081.17
618.83	3071.24
618.93	2856.81
619.03	2630.31
619.13	2417.22
619.23	2229.73
619.33	2106.03
619.43	2063.12
619.53	2080.33
619.63	2101.01
619.73	2190.40
619.83	2158.46
619.93	2194.81
620.03	2228.80
620.13	2202.28
620.23	2269.87
620.33	2234.13
620.43	2351.58
620.53	2353.01
620.63	2508.56
620.73	2537.43
620.83	2677.51
620.93	2716.94
621.03	2849.44
621.13	2925.52
621.23	3024.85
621.33	3065.40
621.43	3170.46
621.53	3206.71
621.63	3397.07
621.73	3499.36
621.83	3637.09
621.93	3744.40
622.03	3900.56
622.13	4041.36
622.23	4157.68
622.33	4198.34
622.43	4353.78
622.53	4267.15
622.63	4353.47
622.73	4333.19
622.83	4394.94
622.93	4333.30
623.03	4295.92
623.13	4182.05
623.23	4172.43
623.33	4114.57
623.42	4232.64
623.52	4296.95
623.62	4469.90
623.72	4556.32
623.82	4476.45
623.92	4452.59
624.02	4232.03
624.12	4039.82
624.22	3956.06
624.32	3985.04
624.42	4051.50
624.52	3976.75
624.62	3992.62
624.72	3899.13
624.82	3764.47
624.92	3505.51
625.02	3486.97
625.12	3567.36
625.22	3697.20
625.32	3838.51
625.42	3967.12
625.52	3868.31
625.62	3772.87
625.72	3505.82
625.82	3432.60
625.91	3330.71
626.01	3338.60
626.11	3509.09
626.21	3730.27
626.31	3819.67
626.41	4001.12
626.51	4008.69
626.61	4182.87
626.71	4243.08
626.81	4324.08
626.91	4423.82
627.01	4569.22
627.11	4717.60
627.21	4984.86
627.31	5328.00
627.41	5708.51
627.51	5773.02
627.60	5692.02
627.70	5496.65
627.80	5225.90
627.90	4846.52
628.00	4652.68
628.10	4704.59
628.20	4990.59
628.30	5152.38
628.40	5332.81
628.50	5620.96
628.60	5890.47
628.70	6027.58
628.80	6413.62
628.89	6520.32
628.99	6864.38
629.09	7067.85
629.19	7424.30
629.29	7591.82
629.39	7803.48
629.49	7887.34
629.59	8078.72
629.69	8101.66
629.79	8212.56
629.89	8125.42
629.98	8173.14
630.08	8008.07
630.18	8048.62
630.28	8064.39
630.38	8312.50
630.48	8506.44
630.58	8830.12
630.68	9118.48
630.78	9428.95
630.88	9490.08
630.98	9735.84
631.07	9821.14
631.17	9902.85
631.27	10045.39
631.37	10402.35
631.47	10433.17
631.57	10528.71
631.67	10638.17
631.77	10829.97
631.87	11003.02
631.96	11319.02
632.06	11746.53
632.16	11590.48
632.26	10893.66
632.36	9938.59
632.46	8339.33
632.56	6686.21
632.66	5244.03
632.75	4550.18
632.85	3940.91
632.95	3692.59
633.05	3795.30
633.15	3820.28
633.25	3775.64
633.35	3910.60
633.45	3894.31
633.55	3956.37
633.64	3940.29
633.74	3979.92
633.84	3901.38
633.94	3956.98
634.04	3895.95
634.14	3945.62
634.24	3901.79
634.33	4122.25
634.43	4219.53
634.53	4445.01
634.63	4579.46
634.73	4780.47
634.83	4996.74
634.93	5261.23
635.02	5433.98
635.12	5761.86
635.22	5874.19
635.32	6265.76
635.42	6410.35
635.52	6742.02
635.62	7076.76
635.71	7354.05
635.81	7574.11
635.91	7888.88
636.01	8127.67
636.11	8413.77
636.21	8584.47
636.31	8836.06
636.40	8759.06
636.50	8856.24
636.60	8821.11
636.70	9044.44
636.80	8909.59
636.90	9071.99
636.99	8762.75
637.09	8562.76
637.19	8270.62
637.29	8003.87
637.39	7727.91
637.49	8019.13
637.58	8083.23
637.68	8332.98
637.78	8574.54
637.88	8815.58
637.98	8780.36
638.08	8948.91
638.17	8715.54
638.27	8619.29
638.37	8639.25
638.47	8773.09
638.57	8919.62
638.66	8891.36
638.76	8557.54
638.86	8280.86
638.96	7788.43
639.06	7196.97
639.16	7140.14
639.25	7277.35
639.35	7435.66
639.45	7816.99
639.55	7784.53
639.65	7465.26
639.74	6692.25
639.84	6031.98
639.94	5330.97
640.04	4712.27
640.14	4395.56
640.23	4650.83
640.33	4685.14
640.43	4896.80
640.53	4880.72
640.63	5103.44
640.73	5040.46
640.82	5186.69
640.92	5200.20
641.02	5230.10
641.12	5075.89
641.21	5206.55
641.31	5115.72
641.41	5275.98
641.51	5416.16
641.61	5685.37
641.70	5859.24
641.80	6295.87
641.90	6452.23
642.00	6838.78
642.10	7183.86
642.19	7690.74
642.29	7960.66
642.39	8590.92
642.49	8897.40
642.59	9492.23
642.68	9845.20
642.78	10351.46
642.88	10983.77
642.98	11455.42
643.07	11919.38
643.17	12469.26
643.27	12821.31
643.37	13622.78
643.46	13586.33
643.56	14170.41
643.66	14309.98
643.76	14324.62
643.86	14453.13
643.95	14680.35
644.05	14740.97
644.15	15132.34
644.25	14989.19
644.34	14552.35
644.44	14055.00
644.54	13596.87
644.64	13090.41
644.73	13215.64
644.83	13061.02
644.93	13622.99
645.03	13947.28
645.12	14260.01
645.22	14600.99
645.32	14891.80
645.42	14863.03
645.51	14749.88
645.61	14369.57
645.71	14656.60
645.81	14925.90
645.90	15364.78
646.00	15286.35
646.10	15047.35
646.20	14434.80
646.29	13841.30
646.39	12747.07
646.49	12249.52
646.59	12446.02
646.68	12836.67
646.78	13404.77
646.88	13848.57
646.98	13571.89
647.07	12552.72
647.17	11205.36
647.27	10061.88
647.37	8726.19
647.46	7839.62
647.56	7643.12
647.66	7878.64
647.75	7927.99
647.85	8190.13
647.95	8484.02
648.05	8585.70
648.14	8578.94
648.24	8818.55
648.34	8860.95
648.44	9012.80
648.53	8883.27
648.63	8864.53
648.73	8813.84
648.82	8919.21
648.92	8847.84
649.02	9198.35
649.12	9440.01
649.21	9744.75
649.31	10219.26
649.41	10734.84
649.50	11230.75
649.60	11996.49
649.70	12544.12
649.80	13171.72
649.89	13761.63
649.99	14576.21
650.09	15132.54
650.18	15904.93
650.28	16607.90
650.38	17573.52
650.47	18343.45
650.57	19243.33
650.67	19845.43
650.77	20683.15
650.86	21340.45
650.96	22133.01
651.06	22389.42
651.15	23065.25
651.25	23108.36
651.35	23433.98
651.44	23585.84
651.54	24134.49
651.64	23841.74
651.73	24391.41
651.83	23736.67
651.93	23412.28
652.03	21975.32
652.12	21260.17
652.22	20638.10
652.32	20770.91
652.41	20862.45
652.51	21756.80
652.61	22220.36
652.70	22895.06
652.80	23023.37
652.90	23792.79
652.99	23539.76
653.09	23663.46
653.19	22988.86
653.28	23379.41
653.38	23729.40
653.48	24191.43
653.57	24493.30
653.67	24478.76
653.77	23444.43
653.86	21971.12
653.96	20618.03
654.06	19282.14
654.15	18856.16
654.25	19395.08
654.35	20260.66
654.44	21154.70
654.54	21465.99
654.64	20429.21
654.73	18021.20
654.83	15954.80
654.93	13535.44
655.02	11634.51
655.12	10259.91
655.22	10280.50
655.31	10573.05
655.41	10949.36
655.51	10921.92
655.60	11338.48
655.70	11567.75
655.79	11506.92
655.89	11566.31
655.99	11803.98
656.08	11671.78
656.18	11700.25
656.28	11354.76
656.37	11482.14
656.47	11271.30
656.57	11579.73
656.66	11599.29
656.76	12183.16
656.85	12622.55
656.95	13223.02
657.05	13830.34
657.14	14512.32
657.24	15099.57
657.34	16015.63
657.43	16717.98
657.53	17663.63
657.63	18179.31
657.72	19080.72
657.82	19957.97
657.91	20794.87
658.01	21971.53
658.11	23123.21
658.20	24240.88
658.30	25177.11
658.39	26161.47
658.49	27594.95
658.59	28287.57
658.68	29376.68
658.78	30250.96
658.88	30809.85
658.97	30625.12
659.07	31262.04
659.16	31227.73
659.26	31767.78
659.36	31843.35
659.45	32266.26
659.55	32000.64
659.64	31781.10
659.74	30157.26
659.84	29379.75
659.93	27593.00
660.03	27306.28
660.12	26946.56
660.22	27660.79
660.32	28095.06
660.41	29186.63
660.51	29799.69
660.60	30512.89
660.70	30778.51
660.80	31442.98
660.89	31008.09
660.99	30928.12
661.08	30582.01
661.18	31614.39
661.28	31770.14
661.37	32439.93
661.47	32296.67
661.56	31489.87
661.66	29960.35
661.75	27883.20
661.85	25758.53
661.95	24811.35
662.04	24847.39
662.14	25893.19
662.23	27196.92
662.33	28067.72
662.43	27600.58
662.52	25712.15
662.62	22514.86
662.71	19708.42
662.81	16176.80
662.90	13709.00
663.00	12432.19
663.10	12456.05
663.19	12694.33
663.29	13140.48
663.38	13154.62
663.48	13631.59
663.57	13687.50
663.67	13874.27
663.77	13662.00
663.86	13637.42
663.96	13615.61
664.05	13480.75
664.15	13138.85
664.24	13099.73
664.34	12649.07
664.43	12486.67
664.53	12343.41
664.63	12419.09
664.72	12648.56
664.82	13156.87
664.91	13388.49
665.01	14111.84
665.10	14632.74
665.20	15550.94
665.29	16007.03
665.39	16823.45
665.48	17477.88
665.58	18214.53
665.68	18973.41
665.77	19604.80
665.87	20480.61
665.96	21508.48
666.06	22334.43
666.15	23697.46
666.25	24181.08
666.34	24983.58
666.44	25794.47
666.53	27322.87
666.63	27611.53
666.72	28473.22
666.82	29201.47
666.91	29803.47
667.01	29834.30
667.11	29970.69
667.20	30240.41
667.30	30383.15
667.39	30687.58
667.49	31219.85
667.58	30594.91
667.68	30491.29
667.77	28880.97
667.87	28164.90
667.96	26335.24
668.06	25737.44
668.15	25572.37
668.25	25885.20
668.34	26203.56
668.44	26930.28
668.53	27327.99
668.63	27963.58
668.72	28416.59
668.82	28772.22
668.91	29019.10
669.01	28747.44
669.10	28175.75
669.20	29020.13
669.29	29024.33
669.39	29457.06
669.48	29921.85
669.58	30209.28
669.67	28920.60
669.77	27307.00
669.86	25191.35
669.96	23781.63
670.05	22324.09
670.15	23109.79
670.24	23814.29
670.34	25451.34
670.43	26161.16
670.53	26444.60
670.62	24560.47
670.72	21995.70
670.81	18820.53
670.91	15855.48
671.00	13077.41
671.10	11935.25
671.19	11709.47
671.29	12097.56
671.38	12454.93
671.48	12698.33
671.57	12893.50
671.67	13282.82
671.76	13453.21
671.86	13952.09
671.95	13630.26
672.04	13997.05
672.14	14093.81
672.23	14121.26
672.33	13896.59
672.42	13914.31
672.52	13893.52
672.61	13960.90
672.71	13913.39
672.80	14272.60
672.90	14606.01
672.99	15114.83
673.09	15472.71
673.18	16257.39
673.28	16744.91
673.37	17817.53
673.46	18665.90
673.56	19780.20
673.65	20513.07
673.75	21651.13
673.84	22385.94
673.94	23816.95
674.03	25251.56
674.13	27072.51
674.22	29067.23
674.32	31519.78
674.41	32038.42
674.50	32232.47
674.60	31142.64
674.69	29901.57
674.79	27515.28
674.88	25469.15
674.98	23772.72
675.07	23695.61
675.17	23208.71
675.26	23223.97
675.35	22961.01
675.45	23348.48
675.54	23179.63
675.64	23767.19
675.73	23707.39
675.83	24129.48
675.92	23827.30
676.01	23161.71
676.11	21959.04
676.20	20931.67
676.30	19833.35
676.39	19566.09
676.49	19308.76
676.58	19561.58
676.67	19838.78
676.77	20610.76
676.86	20711.31
676.96	21224.02
677.05	21396.87
677.15	21970.40
677.24	22064.51
677.33	22097.07
677.43	21778.71
677.52	22012.18
677.62	22250.16
677.71	22831.68
677.80	22917.69
677.90	23439.21
677.99	22169.06
678.09	21203.85
678.18	19777.13
678.27	18065.64
678.37	16736.92
678.46	16639.75
678.56	17202.32
678.65	18031.96
678.74	18988.05
678.84	19922.95
678.93	18905.00
679.03	17588.57
679.12	15091.17
679.21	12552.10
679.31	9930.19
679.40	7955.23
679.50	7047.37
679.59	6931.25
679.68	6881.89
679.78	7082.80
679.87	7049.93
679.97	7231.58
680.06	7176.59
680.15	7320.98
680.25	7201.89
680.34	7164.61
680.44	6976.51
680.53	6864.38
680.62	6519.09
680.72	6272.52
680.81	5941.57
680.90	5721.62
681.00	5294.61
681.09	5208.60
681.19	4962.74
681.28	4876.21
681.37	4800.64
681.47	4937.76
681.56	4966.12
681.65	5143.06
681.75	5190.88
681.84	5410.84
681.94	5664.78
682.03	5875.72
682.12	6036.18
682.22	6260.54
682.31	6406.25
682.40	6571.93
682.50	6879.02
682.59	7234.35
682.68	7391.63
682.78	7835.43
682.87	8068.08
682.96	8447.05
683.06	8555.29
683.15	8940.51
683.25	9302.39
683.34	9568.42
683.43	9817.76
683.53	10102.73
683.62	10302.00
683.71	10535.26
683.81	10581.85
683.90	10761.87
683.99	10682.41
684.09	10821.98
684.18	10886.80
684.27	11067.43
684.37	11125.39
684.46	11064.87
684.55	10854.54
684.65	10393.03
684.74	9839.57
684.83	9422.19
684.93	8985.57
685.02	8959.86
685.11	8821.22
685.21	9150.22
685.30	9270.13
685.39	9615.11
685.49	9732.25
685.58	9944.94
685.67	9914.83
685.77	10236.06
685.86	10294.42
685.95	10174.21
686.05	10084.91
686.14	10232.27
686.23	10140.52
686.33	10387.91
686.42	10415.56
686.51	10563.32
686.61	10335.07
686.70	9833.32
686.79	9214.22
686.88	8571.98
686.98	7777.67
687.07	7613.02
687.16	7671.18
687.26	8076.47
687.35	8457.60
687.44	8923.72
687.54	8865.66
687.63	8498.56
687.72	7561.20
687.82	6538.45
687.91	5279.36
688.00	4191.07
688.09	3620.71
688.19	3366.14
688.28	3241.93
688.37	3272.14
688.47	3183.98
688.56	3168.92
688.65	3185.51
688.74	3144.45
688.84	3081.68
688.93	3106.26
689.02	3037.55
689.12	3045.53
689.21	2933.20
689.30	2867.16
689.39	2730.97
689.49	2614.44
689.58	2470.67
689.67	2290.86
689.77	2117.50
689.86	2020.32
689.95	1855.46
690.04	1735.24
690.14	1629.77
690.23	1607.25
690.32	1591.78
690.42	1573.66
690.51	1557.48
690.60	1551.64
690.69	1539.46
690.79	1498.40
690.88	1481.60
690.97	1474.95
691.06	1448.73
691.16	1439.72
691.25	1419.24
691.34	1430.10
691.43	1404.60
691.53	1445.66
691.62	1382.99
691.71	1368.25
691.80	1387.19
691.90	1376.03
691.99	1389.44
692.08	1362.82
692.18	1404.60
692.27	1425.90
692.36	1392.11
692.45	1402.14
692.55	1374.80
692.64	1377.87
692.73	1374.80
692.82	1380.33
692.91	1350.23
693.01	1386.99
693.10	1391.59
693.19	1384.94
693.28	1336.20
693.38	1386.17
693.47	1366.61
693.56	1348.38
693.65	1332.92
693.75	1368.76
693.84	1339.68
693.93	1363.33
694.02	1382.28
694.12	1374.19
694.21	1379.41
694.30	1389.14
694.39	1340.19
694.48	1358.52
694.58	1347.26
694.67	1331.18
694.76	1300.66
694.85	1286.74
694.95	1274.86
695.04	1292.17
695.13	1276.81
695.22	1281.31
695.31	1288.17
695.41	1287.66
695.50	1285.00
695.59	1280.70
695.68	1232.16
695.78	1227.86
695.87	1226.73
695.96	1232.57
696.05	1249.77
696.14	1248.95
696.24	1274.04
696.33	1302.71
696.42	1273.32
696.51	1262.98
696.60	1214.86
696.70	1185.47
