SpectraSuite Data File
++++++++++++++++++++++++++++++++++++
Date: Wed Jul 12 16:21:37 CDT 2017
User: Owner
Dark Spectrum Present: Yes
Reference Spectrum Present: Yes
Number of Sampled Component Spectra: 1
Spectrometers: USB4H04489
Integration Time (usec): 50000 (USB4H04489)
Spectra Averaged: 20 (USB4H04489)
Boxcar Smoothing: 0 (USB4H04489)
Correct for Electrical Dark: No (USB4H04489)
Strobe/Lamp Enabled: No (USB4H04489)
Correct for Detector Non-linearity: No (USB4H04489)
Correct for Stray Light: No (USB4H04489)
Number of Pixels in Processed Spectrum: 3648
>>>>>Begin Processed Spectral Data<<<<<
580.28	-5.84
580.38	-5.84
580.48	-5.84
580.59	0.41
580.69	-28.47
580.79	5.73
580.90	4.30
581.00	6.96
581.11	-7.37
581.21	-21.50
581.31	18.33
581.42	-3.58
581.52	12.29
581.62	-12.70
581.73	8.60
581.83	4.10
581.93	15.05
582.04	35.12
582.14	1936.25
582.25	3067.35
582.35	3189.92
582.45	3286.27
582.56	3429.73
582.66	3568.89
582.76	3703.65
582.87	3840.86
582.97	3985.14
583.07	4020.37
583.18	4171.51
583.28	4190.04
583.38	4262.03
583.49	4185.74
583.59	4185.84
583.70	4045.76
583.80	3939.27
583.90	3787.62
584.01	3831.34
584.11	3814.03
584.21	3949.51
584.32	3934.66
584.42	4050.98
584.52	4041.97
584.63	4091.53
584.73	4065.01
584.83	4169.97
584.94	4158.20
585.04	4103.31
585.14	3931.59
585.25	3834.31
585.35	3604.22
585.45	3591.73
585.56	3557.94
585.66	3760.38
585.76	3610.88
585.87	3390.31
585.97	3108.61
586.07	2779.20
586.18	2479.48
586.28	2399.50
586.38	2426.64
586.49	2596.01
586.59	2687.75
586.69	2812.07
586.80	2848.21
586.90	2971.19
587.00	3042.67
587.11	3185.51
587.21	3248.08
587.31	3356.42
587.41	3473.05
587.52	3630.54
587.62	3770.31
587.72	3947.97
587.83	4082.83
587.93	4263.26
588.03	4395.15
588.14	4407.64
588.24	4491.20
588.34	4623.90
588.45	4595.13
588.55	4742.48
588.65	4714.01
588.75	4547.11
588.86	4426.79
588.96	4327.87
589.06	4179.09
589.17	4270.63
589.27	4338.72
589.37	4407.23
589.48	4505.63
589.58	4596.87
589.68	4576.08
589.78	4647.76
589.89	4617.35
589.99	4733.67
590.09	4781.70
590.20	4642.75
590.30	4519.15
590.40	4379.38
590.50	4137.31
590.61	4075.36
590.71	4119.18
590.81	4411.73
590.92	4245.95
591.02	4051.29
591.12	3668.42
591.22	3220.84
591.33	2850.87
591.43	2720.93
591.53	2668.09
591.64	2735.47
591.74	2889.48
591.84	3029.36
591.94	3064.38
592.05	3148.55
592.15	3264.15
592.25	3404.65
592.35	3433.11
592.46	3593.26
592.56	3695.87
592.66	3945.92
592.76	4098.70
592.87	4229.98
592.97	4333.81
593.07	4565.95
593.18	4600.97
593.28	4692.20
593.38	4663.84
593.48	4737.26
593.59	4736.85
593.69	4941.75
593.79	4919.94
593.89	4921.68
594.00	4779.75
594.10	4700.91
594.20	4531.44
594.30	4452.39
594.41	4489.35
594.51	4611.00
594.61	4680.63
594.71	4786.41
594.82	4927.31
594.92	4971.34
595.02	4999.81
595.12	5022.54
595.23	5155.66
595.33	5161.50
595.43	5143.06
595.53	5095.04
595.64	4918.09
595.74	4732.55
595.84	4509.63
595.94	4524.78
596.04	4608.13
596.15	4584.58
596.25	4168.23
596.35	3860.73
596.45	3308.60
596.56	2817.39
596.66	2547.06
596.76	2510.30
596.86	2546.96
596.97	2692.46
597.07	2790.66
597.17	2891.12
597.27	2962.49
597.37	3124.38
597.48	3178.04
597.58	3325.18
597.68	3370.96
597.78	3549.74
597.89	3650.71
597.99	3813.73
598.09	3968.04
598.19	4134.54
598.29	4322.03
598.40	4533.49
598.50	4739.20
598.60	4905.91
598.70	4957.42
598.80	5147.57
598.91	5179.21
599.01	5257.65
599.11	5352.37
599.21	5549.89
599.31	5312.64
599.42	5204.50
599.52	5074.05
599.62	4907.55
599.72	4739.20
599.82	4815.70
599.93	4892.09
600.03	5071.69
600.13	5165.18
600.23	5232.05
600.33	5289.39
600.44	5324.31
600.54	5363.83
600.64	5493.57
600.74	5481.29
600.84	5522.55
600.95	5274.03
601.05	5125.55
601.15	4845.19
601.25	4677.66
601.35	4554.58
601.46	4840.48
601.56	4850.41
601.66	4758.66
601.76	4205.30
601.86	3838.00
601.96	3195.65
602.07	2682.22
602.17	2544.81
602.27	2585.87
602.37	2630.31
602.47	2735.37
602.57	2830.80
602.68	2909.45
602.78	2917.84
602.88	2989.22
602.98	3061.00
603.08	3132.37
603.18	3157.66
603.29	3287.40
603.39	3343.00
603.49	3450.93
603.59	3531.41
603.69	3708.05
603.79	3817.52
603.90	4040.44
604.00	4081.09
604.10	4278.21
604.20	4407.95
604.30	4446.86
604.40	4458.43
604.51	4546.59
604.61	4577.31
604.71	4752.62
604.81	4626.98
604.91	4583.87
605.01	4387.26
605.11	4258.96
605.22	3931.28
605.32	4021.29
605.42	3992.41
605.52	4172.43
605.62	4179.09
605.72	4222.30
605.83	4178.98
605.93	4378.35
606.03	4346.61
606.13	4432.83
606.23	4437.44
606.33	4487.92
606.43	4436.41
606.53	4308.11
606.64	3952.78
606.74	3846.29
606.84	3559.68
606.94	3574.63
607.04	3617.84
607.14	3845.06
607.24	3648.87
607.35	3266.31
607.45	2845.14
607.55	2334.58
607.65	1828.84
607.75	1620.46
607.85	1625.06
607.95	1692.54
608.05	1686.40
608.16	1741.29
608.26	1735.76
608.36	1746.51
608.46	1729.00
608.56	1743.23
608.66	1752.86
608.76	1735.96
608.86	1802.83
608.96	1818.70
609.07	1807.74
609.17	1844.20
609.27	1892.32
609.37	1944.65
609.47	2034.35
609.57	2120.06
609.67	2193.48
609.77	2301.00
609.87	2295.06
609.98	2378.82
610.08	2347.28
610.18	2428.99
610.28	2479.17
610.38	2551.36
610.48	2560.17
610.58	2539.69
610.68	2375.23
610.78	2367.66
610.88	2257.78
610.98	2211.40
611.09	2230.85
611.19	2333.87
611.29	2330.79
611.39	2396.12
611.49	2415.27
611.59	2459.20
611.69	2452.03
611.79	2545.01
611.89	2548.59
611.99	2598.05
612.09	2636.15
612.20	2621.50
612.30	2515.32
612.40	2463.30
612.50	2343.29
612.60	2255.94
612.70	2217.64
612.80	2353.83
612.90	2445.27
613.00	2372.26
613.10	2222.56
613.20	1990.83
613.30	1718.35
613.40	1456.82
613.50	1346.64
613.61	1359.54
613.71	1414.02
613.81	1459.79
613.91	1523.07
614.01	1510.17
614.11	1548.16
614.21	1552.05
614.31	1603.97
614.41	1629.77
614.51	1648.00
614.61	1680.15
614.71	1717.73
614.81	1775.28
614.91	1782.04
615.01	1820.34
615.11	1858.84
615.22	1936.05
615.32	1969.53
615.42	2045.41
615.52	2084.83
615.62	2136.85
615.72	2152.72
615.82	2132.45
615.92	2133.06
616.02	2199.72
616.12	2190.00
616.22	2192.56
616.32	2165.42
616.42	2144.74
616.52	2122.82
616.62	1988.58
616.72	2004.14
616.82	1978.13
616.92	1971.89
617.02	2021.14
617.12	2016.53
617.22	2038.96
617.32	2002.09
617.42	1977.83
617.52	1979.46
617.62	2042.03
617.72	2010.70
617.83	2054.42
617.93	2025.44
618.03	1989.29
618.13	1891.30
618.23	1833.85
618.33	1749.48
618.43	1777.02
618.53	1754.70
618.63	1722.24
618.73	1740.26
618.83	1737.60
618.93	1586.97
619.03	1438.29
619.13	1303.33
619.23	1201.24
619.33	1092.18
619.43	1071.29
619.53	1084.91
619.63	1056.34
619.73	1128.02
619.83	1105.19
619.93	1081.02
620.03	1127.71
620.13	1128.94
620.23	1150.34
620.33	1108.46
620.43	1183.32
620.53	1179.22
620.63	1241.79
620.73	1240.86
620.83	1338.55
620.93	1342.96
621.03	1452.93
621.13	1461.23
621.23	1528.81
621.33	1593.93
621.43	1621.89
621.53	1668.38
621.63	1756.95
621.73	1831.50
621.83	1887.10
621.93	1966.97
622.03	2064.76
622.13	2124.15
622.23	2209.45
622.33	2192.25
622.43	2325.16
622.53	2286.97
622.63	2263.01
622.73	2327.11
622.83	2330.59
622.93	2262.39
623.03	2243.34
623.13	2185.39
623.23	2179.86
623.33	2188.15
623.42	2206.58
623.52	2247.44
623.62	2371.55
623.72	2370.73
623.82	2341.65
623.92	2329.87
624.02	2211.60
624.12	2143.71
624.22	2074.29
624.32	2101.11
624.42	2124.15
624.52	2113.09
624.62	2116.17
624.72	2047.05
624.82	1974.24
624.92	1823.61
625.02	1811.33
625.12	1860.78
625.22	1924.89
625.32	2033.33
625.42	2098.55
625.52	2023.80
625.62	1963.39
625.72	1849.11
625.82	1782.35
625.91	1702.78
626.01	1703.60
626.11	1816.96
626.21	1901.54
626.31	1948.23
626.41	2054.32
626.51	2044.59
626.61	2160.20
626.71	2202.59
626.81	2232.59
626.91	2256.25
627.01	2342.57
627.11	2415.99
627.21	2592.93
627.31	2809.20
627.41	2970.27
627.51	3013.28
627.60	3002.01
627.70	2868.79
627.80	2680.59
627.90	2492.58
628.00	2366.94
628.10	2360.80
628.20	2520.33
628.30	2648.02
628.40	2741.72
628.50	2852.00
628.60	2995.15
628.70	3095.71
628.80	3386.93
628.89	3403.83
628.99	3598.69
629.09	3756.38
629.19	3895.03
629.29	3999.58
629.39	4143.96
629.49	4216.97
629.59	4300.73
629.69	4355.31
629.79	4416.04
629.89	4417.57
629.98	4427.09
630.08	4354.08
630.18	4364.84
630.28	4367.19
630.38	4539.02
630.48	4630.35
630.58	4795.11
630.68	4996.84
630.78	5205.42
630.88	5296.05
630.98	5368.24
631.07	5469.00
631.17	5589.93
631.27	5608.98
631.37	5815.72
631.47	5829.24
631.57	5896.41
631.67	5965.32
631.77	6084.62
631.87	6197.46
631.96	6481.21
632.06	6750.41
632.16	6686.21
632.26	6229.00
632.36	5702.67
632.46	4737.98
632.56	3681.33
632.66	2820.26
632.75	2349.12
632.85	1995.34
632.95	1863.55
633.05	1855.56
633.15	1874.30
633.25	1864.98
633.35	1940.76
633.45	1904.92
633.55	1953.86
633.64	1917.00
633.74	1899.18
633.84	1907.68
633.94	1941.37
634.04	1920.38
634.14	1889.46
634.24	1892.43
634.33	1987.76
634.43	2043.05
634.53	2184.88
634.63	2265.36
634.73	2391.21
634.83	2495.86
634.93	2662.77
635.02	2743.77
635.12	2936.17
635.22	3017.99
635.32	3198.52
635.42	3320.99
635.52	3491.68
635.62	3662.08
635.71	3895.85
635.81	4008.69
635.91	4168.74
636.01	4323.88
636.11	4526.52
636.21	4626.16
636.31	4780.57
636.40	4707.15
636.50	4770.23
636.60	4718.52
636.70	4897.41
636.80	4829.42
636.90	4914.92
636.99	4751.90
637.09	4642.54
637.19	4455.87
637.29	4334.42
637.39	4142.02
637.49	4307.60
637.58	4370.77
637.68	4530.62
637.78	4640.39
637.88	4771.15
637.98	4715.76
638.08	4826.96
638.17	4775.04
638.27	4658.62
638.37	4676.95
638.47	4820.10
638.57	4849.69
638.66	4919.94
638.76	4645.00
638.86	4520.07
638.96	4227.62
639.06	3930.36
639.16	3900.15
639.25	3991.18
639.35	4105.46
639.45	4353.78
639.55	4329.92
639.65	4146.73
639.74	3684.30
639.84	3276.65
639.94	2813.81
640.04	2437.90
640.14	2248.16
640.23	2295.26
640.33	2346.77
640.43	2464.42
640.53	2443.94
640.63	2562.62
640.73	2523.51
640.82	2610.55
640.92	2589.04
641.02	2602.15
641.12	2539.17
641.21	2575.12
641.31	2529.96
641.41	2578.60
641.51	2694.51
641.61	2834.80
641.70	2924.19
641.80	3148.44
641.90	3279.82
642.00	3506.74
642.10	3737.54
642.19	4026.61
642.29	4137.72
642.39	4504.20
642.49	4674.18
642.59	5025.31
642.68	5268.91
642.78	5534.02
642.88	5921.29
642.98	6248.05
643.07	6506.60
643.17	6845.75
643.27	7064.67
643.37	7535.81
643.46	7579.53
643.56	7878.43
643.66	7994.96
643.76	7994.55
643.86	8073.50
643.95	8229.05
644.05	8260.79
644.15	8505.62
644.25	8427.39
644.34	8151.33
644.44	7844.13
644.54	7609.54
644.64	7363.68
644.73	7395.22
644.83	7313.30
644.93	7640.15
645.03	7807.47
645.12	8046.88
645.22	8229.35
645.32	8405.68
645.42	8351.92
645.51	8306.87
645.61	8129.82
645.71	8275.02
645.81	8402.00
645.90	8696.08
646.00	8749.84
646.10	8631.16
646.20	8320.49
646.29	7874.85
646.39	7244.38
646.49	6999.55
646.59	7094.57
646.68	7257.18
646.78	7730.77
646.88	7971.00
646.98	7849.97
647.07	7246.43
647.17	6357.92
647.27	5653.11
647.37	4784.05
647.46	4235.10
647.56	4057.54
647.66	4169.56
647.75	4215.23
647.85	4379.58
647.95	4480.55
648.05	4486.08
648.14	4483.11
648.24	4579.26
648.34	4582.64
648.44	4679.81
648.53	4573.32
648.63	4556.01
648.73	4527.65
648.82	4588.88
648.92	4592.88
649.02	4778.22
649.12	5007.18
649.21	5149.41
649.31	5506.78
649.41	5762.47
649.50	6071.20
649.60	6485.61
649.70	6853.53
649.80	7241.82
649.89	7601.04
649.99	8117.12
650.09	8476.54
650.18	8979.63
650.28	9418.40
650.38	9945.14
650.47	10515.71
650.57	11115.04
650.67	11500.06
650.77	12041.34
650.86	12527.73
650.96	13003.88
651.06	13221.38
651.15	13608.85
651.25	13667.43
651.35	13844.06
651.44	13947.28
651.54	14429.27
651.64	14199.90
651.73	14590.04
651.83	14210.45
651.93	14030.33
652.03	13126.56
652.12	12684.09
652.22	12302.35
652.32	12381.10
652.41	12416.83
652.51	12977.98
652.61	13283.53
652.70	13637.94
652.80	13746.68
652.90	14218.54
652.99	14074.97
653.09	14179.83
653.19	13739.00
653.28	14076.51
653.38	14306.70
653.48	14659.26
653.57	14873.89
653.67	14861.29
653.77	14260.21
653.86	13401.70
653.96	12515.96
654.06	11712.33
654.15	11496.27
654.25	11854.05
654.35	12480.42
654.44	13210.63
654.54	13371.09
654.64	12759.66
654.73	11213.04
654.83	9842.85
654.93	8211.74
655.02	6799.26
655.12	5918.42
655.22	5879.00
655.31	6000.34
655.41	6207.80
655.51	6164.08
655.60	6411.88
655.70	6484.89
655.79	6445.37
655.89	6444.96
655.99	6524.32
656.08	6464.82
656.18	6395.91
656.28	6213.95
656.37	6253.37
656.47	6102.74
656.57	6303.85
656.66	6363.55
656.76	6741.09
656.85	6998.73
656.95	7340.74
657.05	7744.80
657.14	8164.53
657.24	8549.86
657.34	9172.75
657.43	9599.65
657.53	10202.67
657.63	10599.47
657.72	11180.68
657.82	11714.28
657.91	12389.70
658.01	13049.04
658.11	13807.10
658.20	14623.42
658.30	15207.40
658.39	15926.54
658.49	16815.36
658.59	17373.74
658.68	18025.61
658.78	18676.66
658.88	18987.03
658.97	18918.73
659.07	19356.17
659.16	19462.97
659.26	19711.60
659.36	19914.04
659.45	20208.13
659.55	20144.33
659.64	19995.85
659.74	18880.74
659.84	18382.36
659.93	17194.34
660.03	16934.45
660.12	16784.33
660.22	17194.75
660.32	17517.20
660.41	18174.80
660.51	18583.17
660.60	19016.93
660.70	19172.26
660.80	19543.15
660.89	19253.26
660.99	19267.60
661.08	19092.29
661.18	19763.62
661.28	20032.82
661.37	20416.81
661.47	20443.34
661.56	20018.69
661.66	18890.26
661.75	17566.35
661.85	16194.11
661.95	15598.46
662.04	15673.21
662.14	16414.88
662.23	17371.28
662.33	18052.13
662.43	17804.53
662.52	16567.45
662.62	14444.63
662.71	12465.58
662.81	10031.57
662.90	8299.39
663.00	7356.71
663.10	7333.57
663.19	7451.33
663.29	7656.13
663.38	7726.99
663.48	7930.25
663.57	7870.04
663.67	8011.04
663.77	7802.25
663.86	7744.39
663.96	7687.56
664.05	7582.71
664.15	7299.68
664.24	7243.26
664.34	6931.96
664.43	6840.63
664.53	6753.48
664.63	6818.92
664.72	6921.42
664.82	7239.16
664.91	7432.59
665.01	7890.62
665.10	8131.97
665.20	8739.91
665.29	9054.48
665.39	9611.01
665.48	10006.89
665.58	10476.90
665.68	10977.62
665.77	11430.64
665.87	11958.09
665.96	12693.92
666.06	13186.26
666.15	14117.88
666.25	14451.70
666.34	15030.25
666.44	15574.60
666.53	16588.96
666.63	16812.29
666.72	17362.78
666.82	17890.34
666.91	18316.01
667.01	18398.54
667.11	18461.41
667.20	18622.90
667.30	18842.13
667.39	19083.48
667.49	19403.68
667.58	19122.29
667.68	19064.44
667.77	17997.75
667.87	17540.85
667.96	16293.95
668.06	15930.64
668.15	15727.27
668.25	15948.35
668.34	16244.59
668.44	16575.03
668.53	16908.13
668.63	17366.88
668.72	17606.69
668.82	17769.71
668.91	17903.14
669.01	17789.68
669.10	17354.90
669.20	17957.51
669.29	18087.56
669.39	18445.03
669.48	18754.58
669.58	19017.54
669.67	18195.69
669.77	17116.41
669.86	15855.07
669.96	14961.23
670.05	14075.59
670.15	14600.38
670.24	15031.89
670.34	16208.96
670.43	16772.86
670.53	17011.66
670.62	15768.44
670.72	14089.82
670.81	11921.33
670.91	9924.97
671.00	7936.70
671.10	7170.76
671.19	6929.51
671.29	7115.46
671.38	7274.28
671.48	7434.13
671.57	7574.00
671.67	7771.12
671.76	7818.22
671.86	8048.01
671.95	7844.33
672.04	8056.81
672.14	8030.90
672.23	8023.53
672.33	7899.63
672.42	7901.58
672.52	7906.08
672.61	7968.95
672.71	7943.35
672.80	8237.03
672.90	8401.89
672.99	8736.74
673.09	8986.69
673.18	9509.44
673.28	9782.12
673.37	10459.28
673.46	11015.00
673.56	11739.06
673.65	12195.86
673.75	12875.37
673.84	13406.00
673.94	14297.79
674.03	15147.08
674.13	16370.54
674.22	17705.82
674.32	19355.15
674.41	19770.99
674.50	20031.90
674.60	19395.80
674.69	18649.93
674.79	17115.59
674.88	15914.05
674.98	14893.55
675.07	14802.00
675.17	14479.14
675.26	14511.39
675.35	14355.44
675.45	14643.39
675.54	14554.81
675.64	14922.11
675.73	14957.95
675.83	15279.79
675.92	15209.85
676.01	14736.67
676.11	13929.77
676.20	13293.37
676.30	12504.59
676.39	12302.15
676.49	12184.08
676.58	12296.41
676.67	12507.35
676.77	13045.25
676.86	13102.39
676.96	13399.96
677.05	13527.45
677.15	13905.50
677.24	13904.89
677.33	13905.40
677.43	13784.57
677.52	13960.70
677.62	14145.52
677.71	14489.69
677.80	14703.60
677.90	15096.29
677.99	14294.92
678.09	13649.81
678.18	12812.50
678.27	11677.83
678.37	10805.19
678.46	10772.21
678.56	11185.90
678.65	11778.28
678.74	12495.48
678.84	13230.19
678.93	12595.01
679.03	11779.92
679.12	10097.31
679.21	8377.11
679.31	6502.51
679.40	5142.24
679.50	4476.96
679.59	4336.06
679.68	4285.78
679.78	4414.09
679.87	4399.65
679.97	4440.51
680.06	4434.16
680.15	4474.50
680.25	4370.67
680.34	4267.56
680.44	4127.17
680.53	4006.65
680.62	3778.09
680.72	3601.56
680.81	3413.55
680.90	3266.61
681.00	3026.69
681.09	2925.93
681.19	2768.34
681.28	2776.94
681.37	2755.75
681.47	2758.41
681.56	2817.08
681.65	2915.28
681.75	2941.91
681.84	3096.53
681.94	3233.95
682.03	3342.90
682.12	3448.47
682.22	3581.79
682.31	3701.70
682.40	3852.23
682.50	4001.32
682.59	4219.53
682.68	4380.30
682.78	4627.18
682.87	4808.12
682.96	5012.61
683.06	5145.01
683.15	5403.36
683.25	5582.15
683.34	5824.12
683.43	5954.98
683.53	6178.72
683.62	6329.04
683.71	6478.65
683.81	6495.03
683.90	6616.07
683.99	6482.85
684.09	6639.62
684.18	6747.14
684.27	6820.96
684.37	6913.12
684.46	6925.00
684.55	6750.10
684.65	6468.51
684.74	6088.82
684.83	5851.56
684.93	5527.67
685.02	5547.33
685.11	5446.16
685.21	5648.81
685.30	5761.35
685.39	5930.41
685.49	6037.21
685.58	6139.61
685.67	6169.81
685.77	6322.80
685.86	6379.73
685.95	6265.35
686.05	6259.41
686.14	6394.99
686.23	6281.73
686.33	6498.41
686.42	6568.14
686.51	6631.22
686.61	6562.20
686.70	6215.38
686.79	5806.81
686.88	5431.52
686.98	4931.00
687.07	4794.60
687.16	4910.31
687.26	5163.54
687.35	5417.90
687.44	5837.94
687.54	5791.86
687.63	5632.73
687.72	4968.37
687.82	4278.21
687.91	3421.03
688.00	2659.49
688.09	2225.63
688.19	2050.63
688.28	1984.69
688.37	1971.99
688.47	1936.87
688.56	1915.67
688.65	1893.86
688.74	1871.13
688.84	1873.89
688.93	1842.46
689.02	1783.27
689.12	1789.41
689.21	1676.77
689.30	1637.66
689.39	1543.66
689.49	1471.67
689.58	1383.61
689.67	1307.22
689.77	1185.47
689.86	1112.97
689.95	1031.77
690.04	945.34
690.14	891.69
690.23	894.25
690.32	853.90
690.42	875.51
690.51	829.43
690.60	850.42
690.69	837.41
690.79	851.24
690.88	807.62
690.97	807.21
691.06	779.87
691.16	774.34
691.25	770.34
691.34	749.86
691.43	789.59
691.53	795.84
691.62	745.97
691.71	765.22
691.80	776.90
691.90	758.77
691.99	761.23
692.08	760.62
692.18	764.81
692.27	780.07
692.36	755.19
692.45	777.00
692.55	777.92
692.64	748.12
692.73	745.36
692.82	767.78
692.91	757.85
693.01	765.63
693.10	781.10
693.19	760.92
693.28	737.99
693.38	730.72
693.47	741.06
693.56	742.29
693.65	709.11
693.75	771.57
693.84	757.44
693.93	737.68
694.02	754.37
694.12	767.78
694.21	745.05
694.30	733.99
694.39	734.40
694.48	772.60
694.58	717.51
694.67	728.97
694.76	717.92
694.85	710.95
694.95	692.32
695.04	711.77
695.13	672.55
695.22	720.37
695.31	704.40
695.41	693.24
695.50	720.58
695.59	702.56
695.68	701.84
695.78	692.42
695.87	685.25
695.96	678.80
696.05	683.20
696.14	659.14
696.24	688.73
696.33	706.45
696.42	680.23
696.51	678.70
696.60	674.29
696.70	638.66
696.79	641.22
696.88	626.37
696.97	628.93
697.06	619.31
697.16	640.20
697.25	637.84
697.34	649.00
697.43	671.84
697.52	682.08
697.62	706.24
697.71	744.54
697.80	768.60
697.89	726.93
697.98	758.98
698.08	739.32
698.17	736.86
