SpectraSuite Data File
++++++++++++++++++++++++++++++++++++
Date: Wed Jul 12 17:03:08 CDT 2017
User: Owner
Dark Spectrum Present: Yes
Reference Spectrum Present: Yes
Number of Sampled Component Spectra: 1
Spectrometers: USB4H04489
Integration Time (usec): 35000 (USB4H04489)
Spectra Averaged: 20 (USB4H04489)
Boxcar Smoothing: 0 (USB4H04489)
Correct for Electrical Dark: No (USB4H04489)
Strobe/Lamp Enabled: No (USB4H04489)
Correct for Detector Non-linearity: No (USB4H04489)
Correct for Stray Light: No (USB4H04489)
Number of Pixels in Processed Spectrum: 3648
>>>>>Begin Processed Spectral Data<<<<<
580.28	2.97
580.38	2.97
580.48	2.97
580.59	-2.87
580.69	-40.34
580.79	7.68
580.90	5.32
581.00	-10.65
581.11	-15.67
581.21	-3.69
581.31	1.43
581.42	35.84
581.52	4.71
581.62	-9.93
581.73	13.31
581.83	31.74
581.93	36.04
582.04	153.90
582.14	7913.15
582.25	12382.43
582.35	12572.68
582.45	12796.63
582.56	13161.37
582.66	13446.96
582.76	13945.44
582.87	14319.91
582.97	14719.26
583.07	14572.73
583.18	15178.52
583.28	15159.99
583.38	15258.19
583.49	15038.75
583.59	15072.64
583.70	14545.49
583.80	14134.16
583.90	13849.29
584.01	13875.81
584.11	13818.87
584.21	14301.38
584.32	14283.05
584.42	14741.18
584.52	14654.75
584.63	14800.16
584.73	14660.90
584.83	14962.66
584.94	14742.41
585.04	14435.31
585.14	14074.26
585.25	13590.83
585.35	12969.58
585.45	12800.62
585.56	12496.91
585.66	13032.56
585.76	12670.17
585.87	12073.80
585.97	11238.64
586.07	10476.69
586.18	9783.97
586.28	9559.82
586.38	9728.47
586.49	10330.36
586.59	10675.14
586.69	11030.26
586.80	11196.45
586.90	11856.51
587.00	11977.65
587.11	12368.30
587.21	12565.82
587.31	12849.06
587.41	13155.74
587.52	13631.18
587.62	13829.63
587.72	14223.96
587.83	14637.55
587.93	15194.49
588.03	15551.87
588.14	15621.60
588.24	15809.81
588.34	16171.07
588.45	16084.64
588.55	16342.79
588.65	16183.46
588.75	15813.08
588.86	15441.27
588.96	15163.57
589.06	14696.74
589.17	15069.98
589.27	15127.42
589.37	15437.79
589.48	15841.04
589.58	16044.91
589.68	16164.92
589.78	16406.69
589.89	16126.73
589.99	16508.88
590.09	16549.33
590.20	16010.30
590.30	15579.00
590.40	15129.47
590.50	14388.72
590.61	14143.17
590.71	14121.26
590.81	14834.67
590.92	14578.16
591.02	14089.62
591.12	13106.18
591.22	12055.16
591.33	10969.43
591.43	10700.53
591.53	10417.91
591.64	10695.82
591.74	11132.45
591.84	11623.86
591.94	11840.84
592.05	12065.30
592.15	12425.74
592.25	12946.44
592.35	12957.50
592.46	13433.24
592.56	13554.58
592.66	14214.54
592.76	14510.47
592.87	14798.62
592.97	14882.49
593.07	15537.73
593.18	15323.21
593.28	15460.63
593.38	15379.73
593.48	15467.28
593.59	15458.58
593.69	15961.25
593.79	15834.59
593.89	15702.70
594.00	15300.68
594.10	15010.69
594.20	14529.52
594.30	14489.58
594.41	14488.76
594.51	14743.94
594.61	14833.74
594.71	15360.38
594.82	15757.89
594.92	15918.04
595.02	16046.24
595.12	16079.83
595.23	16279.51
595.33	16287.60
595.43	16156.73
595.53	15850.46
595.64	15286.04
595.74	14797.80
595.84	14043.54
595.94	13940.73
596.04	13877.96
596.15	13754.57
596.25	12619.89
596.35	11825.28
596.45	10465.63
596.56	9346.01
596.66	8652.77
596.76	8734.48
596.86	8874.36
596.97	9231.83
597.07	9475.13
597.17	9824.31
597.27	10047.85
597.37	10540.79
597.48	10604.89
597.58	11046.23
597.68	10994.52
597.78	11562.22
597.89	11658.88
597.99	12066.84
598.09	12279.72
598.19	12670.68
598.29	13001.12
598.40	13482.50
598.50	14012.71
598.60	14178.09
598.70	14451.39
598.80	14743.12
598.91	14915.46
599.01	15028.30
599.11	15125.07
599.21	15595.49
599.31	14821.56
599.42	14494.29
599.52	14200.82
599.62	13802.08
599.72	13434.27
599.82	13489.87
599.93	13799.83
600.03	14119.21
600.13	14411.86
600.23	14697.55
600.33	14809.27
600.44	14936.96
600.54	14890.78
600.64	15124.25
600.74	14914.64
600.84	15104.59
600.95	14413.40
601.05	13949.43
601.15	13148.88
601.25	12754.95
601.35	12252.79
601.46	12667.61
601.56	12508.58
601.66	12355.19
601.76	11049.51
601.86	10297.19
601.96	8913.68
602.07	7971.10
602.17	7631.96
602.27	7793.55
602.37	7944.28
602.47	8224.23
602.57	8491.39
602.68	8694.55
602.78	8758.34
602.88	9112.54
602.98	9280.58
603.08	9373.14
603.18	9472.88
603.29	9796.66
603.39	9784.89
603.49	10048.26
603.59	10010.06
603.69	10373.58
603.79	10578.48
603.90	10909.43
604.00	11012.24
604.10	11463.40
604.20	11677.21
604.30	11788.11
604.40	11713.36
604.51	11814.83
604.61	11815.04
604.71	12168.62
604.81	11802.55
604.91	11725.03
605.01	11205.15
605.11	10995.54
605.22	10317.97
605.32	10530.96
605.42	10444.74
605.52	10747.64
605.62	10860.99
605.72	11064.97
605.83	10913.52
605.93	11456.44
606.03	11364.38
606.13	11499.45
606.23	11428.79
606.33	11556.07
606.43	11286.87
606.53	10922.23
606.64	10136.52
606.74	9923.84
606.84	9144.69
606.94	9047.62
607.04	9063.18
607.14	9443.39
607.24	9073.53
607.35	8198.53
607.45	7308.79
607.55	6355.56
607.65	5240.96
607.75	4837.40
607.85	4954.96
607.95	5087.77
608.05	5136.61
608.16	5330.56
608.26	5328.20
608.36	5452.92
608.46	5456.40
608.56	5563.72
608.66	5525.32
608.76	5627.20
608.86	5624.95
608.96	5729.50
609.07	5653.32
609.17	5755.20
609.27	5745.47
609.37	5874.09
609.47	6013.25
609.57	6222.04
609.67	6306.72
609.77	6496.98
609.87	6558.52
609.98	6675.76
610.08	6670.85
610.18	6790.86
610.28	6897.15
610.38	6971.80
610.48	6999.04
610.58	6886.19
610.68	6617.70
610.78	6582.68
610.88	6370.10
610.98	6215.59
611.09	6284.29
611.19	6601.42
611.29	6517.97
611.39	6686.31
611.49	6802.64
611.59	6927.05
611.69	7063.44
611.79	7214.28
611.89	7220.32
611.99	7274.59
612.09	7395.32
612.20	7375.04
612.30	7140.04
612.40	7003.34
612.50	6733.93
612.60	6524.42
612.70	6405.02
612.80	6594.25
612.90	6830.59
613.00	6670.34
613.10	6321.26
613.20	5903.68
613.30	5360.05
613.40	4865.56
613.50	4700.29
613.61	4763.78
613.71	4900.28
613.81	5011.79
613.91	5179.62
614.01	5341.72
614.11	5401.31
614.21	5486.92
614.31	5609.59
614.41	5706.15
614.51	5854.63
614.61	5979.56
614.71	6079.91
614.81	6251.94
614.91	6323.62
615.01	6285.22
615.11	6382.90
615.22	6589.03
615.32	6633.17
615.42	6794.96
615.52	6928.69
615.62	7010.40
615.72	6947.94
615.82	7084.33
615.92	7083.31
616.02	7207.01
616.12	7073.68
616.22	7124.58
616.32	7031.70
616.42	6914.04
616.52	6785.33
616.62	6516.94
616.72	6566.71
616.82	6543.16
616.92	6479.47
617.02	6698.91
617.12	6679.96
617.22	6820.45
617.32	6576.85
617.42	6525.14
617.52	6565.38
617.62	6738.23
617.72	6612.99
617.83	6684.47
617.93	6631.94
618.03	6533.84
618.13	6262.28
618.23	6068.54
618.33	5936.65
618.43	5979.76
618.53	5841.63
618.63	5897.54
618.73	5847.67
618.83	5815.41
618.93	5540.06
619.03	5277.82
619.13	4916.25
619.23	4693.64
619.33	4570.55
619.43	4567.79
619.53	4595.44
619.63	4668.65
619.73	4836.28
619.83	4784.16
619.93	4801.97
620.03	4954.24
620.13	4954.45
620.23	4978.71
620.33	4932.84
620.43	5212.39
620.53	5166.62
620.63	5483.13
620.73	5607.85
620.83	5781.31
620.93	5955.39
621.03	6152.61
621.13	6229.31
621.23	6438.92
621.33	6434.72
621.43	6605.62
621.53	6626.92
621.63	6862.64
621.73	7151.81
621.83	7335.31
621.93	7472.94
622.03	7816.58
622.13	8010.02
622.23	8222.18
622.33	8250.24
622.43	8576.79
622.53	8416.64
622.63	8538.49
622.73	8607.61
622.83	8612.63
622.93	8584.78
623.03	8560.10
623.13	8347.32
623.23	8448.08
623.33	8327.66
623.42	8543.20
623.52	8677.24
623.62	8978.50
623.72	9039.73
623.82	8951.47
623.92	8875.69
624.02	8544.13
624.12	8130.03
624.22	7901.58
624.32	7943.35
624.42	8110.26
624.52	7962.30
624.62	8016.67
624.72	7804.30
624.82	7620.90
624.92	7235.58
625.02	7179.67
625.12	7335.21
625.22	7523.73
625.32	7626.74
625.42	7969.47
625.52	7858.47
625.62	7699.75
625.72	7424.50
625.82	7390.10
625.91	7230.25
626.01	7424.19
626.11	7666.67
626.21	8058.55
626.31	8234.06
626.41	8606.90
626.51	8642.63
626.61	9025.60
626.71	9156.78
626.81	9293.17
626.91	9428.34
627.01	9810.90
627.11	10034.64
627.21	10511.51
627.31	11032.92
627.41	11706.39
627.51	11814.94
627.60	11728.82
627.70	11338.07
627.80	10971.28
627.90	10189.36
628.00	9823.90
628.10	9919.03
628.20	10376.34
628.30	10652.10
628.40	10970.05
628.50	11408.72
628.60	11932.08
628.70	12162.78
628.80	12785.67
628.89	12900.56
628.99	13515.16
629.09	13809.86
629.19	14380.84
629.29	14647.38
629.39	15095.27
629.49	15225.73
629.59	15534.66
629.69	15505.27
629.79	15662.56
629.89	15534.66
629.98	15655.90
630.08	15334.88
630.18	15449.26
630.28	15433.08
630.38	15848.00
630.48	16089.15
630.58	16644.87
630.68	17164.54
630.78	17627.58
630.88	17853.99
630.98	18127.70
631.07	18177.05
631.17	18408.68
631.27	18608.25
631.37	19188.65
631.47	19349.41
631.57	19545.40
631.67	19704.84
631.77	20083.92
631.87	20189.08
631.96	20723.29
632.06	21369.22
632.16	21090.29
632.26	19814.81
632.36	18182.17
632.46	15545.11
632.56	12825.40
632.66	10485.40
632.75	9457.52
632.85	8510.44
632.95	8170.99
633.05	8358.89
633.15	8448.69
633.25	8340.15
633.35	8641.30
633.45	8660.35
633.55	8786.71
633.64	8880.81
633.74	8829.00
633.84	8865.55
633.94	8959.97
634.04	8861.46
634.14	8884.19
634.24	8879.58
634.33	9244.33
634.43	9240.74
634.53	9700.72
634.63	10020.81
634.73	10263.09
634.83	10621.07
634.93	11063.95
635.02	11355.17
635.12	11965.97
635.22	12036.01
635.32	12762.02
635.42	12900.36
635.52	13478.09
635.62	13917.69
635.71	14415.75
635.81	14710.46
635.91	15201.87
636.01	15522.07
636.11	15974.46
636.21	16140.35
636.31	16661.04
636.40	16480.62
636.50	16700.57
636.60	16541.85
636.70	16856.52
636.80	16700.37
636.90	16911.20
636.99	16361.94
637.09	16101.13
637.19	15578.08
637.29	15225.11
637.39	14677.89
637.49	15158.25
637.58	15332.53
637.68	15824.24
637.78	16155.81
637.88	16573.19
637.98	16380.37
638.08	16775.22
638.17	16425.63
638.27	16207.42
638.37	16011.12
638.47	16369.62
638.57	16456.76
638.66	16403.51
638.76	15815.75
638.86	15435.54
638.96	14517.03
639.06	13574.96
639.16	13543.01
639.25	13790.61
639.35	13828.29
639.45	14493.78
639.55	14436.23
639.65	13986.30
639.74	12704.06
639.84	11826.71
639.94	10934.00
640.04	9966.54
640.14	9501.04
640.23	10063.00
640.33	10112.56
640.43	10555.85
640.53	10578.88
640.63	11088.62
640.73	10984.38
640.82	11338.48
640.92	11412.82
641.02	11491.56
641.12	11179.25
641.21	11474.56
641.31	11341.75
641.41	11486.85
641.51	11794.66
641.61	12275.73
641.70	12491.69
641.80	13358.49
641.90	13573.83
642.00	14332.61
642.10	14725.71
642.19	15650.07
642.29	15885.48
642.39	16998.96
642.49	17507.16
642.59	18407.04
642.68	18893.74
642.78	19722.86
642.88	20781.05
642.98	21461.48
643.07	22113.45
643.17	22929.26
643.27	23418.22
643.37	24617.51
643.46	24395.92
643.56	25359.59
643.66	25633.61
643.76	25679.99
643.86	25811.27
643.95	26270.52
644.05	26236.94
644.15	26808.42
644.25	26622.06
644.34	25888.68
644.44	25031.50
644.54	24527.70
644.64	23720.50
644.73	23965.33
644.83	23548.57
644.93	24492.27
645.03	24971.60
645.12	25449.80
645.22	25962.61
645.32	26651.24
645.42	26425.35
645.51	26269.60
645.61	25620.40
645.71	25922.37
645.81	26176.42
645.90	26812.21
646.00	26687.70
646.10	26319.68
646.20	25398.40
646.29	24298.64
646.39	22565.95
646.49	21797.45
646.59	22006.04
646.68	22478.20
646.78	23461.94
646.88	23949.15
646.98	23619.02
647.07	22107.52
647.17	20007.02
647.27	18558.08
647.37	16843.21
647.46	15601.73
647.56	15378.61
647.66	15934.32
647.75	16060.07
647.85	16540.73
647.95	17258.13
648.05	17501.12
648.14	17644.38
648.24	18328.81
648.34	18401.51
648.44	18912.27
648.53	18711.37
648.63	18826.36
648.73	18530.94
648.82	18527.56
648.92	18259.79
649.02	18551.83
649.12	18877.66
649.21	19372.45
649.31	20170.96
649.41	21020.25
649.50	21748.81
649.60	22898.03
649.70	23586.76
649.80	24537.12
649.89	25348.32
649.99	26652.88
650.09	27356.87
650.18	28537.11
650.28	29573.69
650.38	30911.22
650.47	32013.54
650.57	33358.54
650.67	34059.77
650.77	35144.99
650.86	36030.63
650.96	37068.75
651.06	37339.08
651.15	38271.01
651.25	38411.29
651.35	38764.98
651.44	38874.03
651.54	39772.68
651.64	39120.30
651.73	39847.33
651.83	38912.02
651.93	38450.41
652.03	36296.35
652.12	35457.92
652.22	34518.41
652.32	34768.47
652.41	34743.48
652.51	36035.65
652.61	36654.54
652.70	37784.10
652.80	37877.08
652.90	39237.24
652.99	38792.11
653.09	39164.94
653.19	37834.28
653.28	38245.71
653.38	38523.93
653.48	38953.59
653.57	39320.80
653.67	39358.48
653.77	37978.04
653.86	35749.96
653.96	33571.94
654.06	31496.74
654.15	30741.03
654.25	31250.47
654.35	32185.67
654.44	33382.20
654.54	33690.31
654.64	32370.09
654.73	28999.75
654.83	26093.27
654.93	23121.87
655.02	20785.76
655.12	18896.20
655.22	19042.12
655.31	19741.60
655.41	20422.86
655.51	20239.77
655.60	21161.15
655.70	21675.09
655.79	21861.76
655.89	21935.59
655.99	22370.68
656.08	22435.60
656.18	22305.04
656.28	21975.93
656.37	22271.76
656.47	21803.60
656.57	22390.54
656.66	22244.01
656.76	23083.37
656.85	23691.72
656.95	24668.19
657.05	25531.10
657.14	26568.09
657.24	27456.91
657.34	28701.16
657.43	29487.27
657.53	30812.82
657.63	31531.96
657.72	32893.35
657.82	33895.73
657.91	35117.24
658.01	36696.53
658.11	38256.98
658.20	39824.70
658.30	41038.73
658.39	42163.99
658.49	43982.89
658.59	44951.69
658.68	46479.98
658.78	47306.44
658.88	48016.68
658.97	47881.61
659.07	48723.22
659.16	48538.91
659.26	49103.53
659.36	49149.10
659.45	49587.36
659.55	49170.50
659.64	48906.62
659.74	46544.80
659.84	45738.31
659.93	43362.56
660.03	43040.32
660.12	42505.59
660.22	43482.78
660.32	44097.38
660.41	45582.25
660.51	46424.17
660.60	47390.61
660.70	47927.79
660.80	48842.01
660.89	48198.13
660.99	47970.70
661.08	47366.04
661.18	48464.57
661.28	48609.97
661.37	49088.38
661.47	48985.57
661.56	47917.76
661.66	45773.74
661.75	42822.31
661.85	39806.57
661.95	38474.47
662.04	38434.84
662.14	39673.66
662.23	41184.75
662.33	42203.11
662.43	41565.16
662.52	39009.50
662.62	34733.96
662.71	31070.86
662.81	26629.64
662.90	23557.07
663.00	21748.81
663.10	22058.67
663.19	22500.62
663.29	23348.69
663.38	23359.64
663.48	24141.87
663.57	24644.23
663.67	25174.66
663.77	24857.63
663.86	25062.63
663.96	25218.28
664.05	25099.91
664.15	24563.64
664.24	24693.59
664.34	24115.34
664.43	23953.66
664.53	23765.24
664.63	24063.02
664.72	24170.43
664.82	25029.97
664.91	25202.82
665.01	26431.60
665.10	26987.11
665.20	28553.50
665.29	29146.18
665.39	30430.67
665.48	31336.17
665.58	32387.09
665.68	33359.98
665.77	34291.19
665.87	35356.23
665.96	36903.78
666.06	37820.35
666.15	39815.38
666.25	40329.22
666.34	41297.80
666.44	42339.60
666.53	44401.40
666.63	44839.87
666.72	45865.80
666.82	46767.11
666.91	47564.07
667.01	47717.98
667.11	47801.64
667.20	47978.38
667.30	48146.21
667.39	48561.95
667.49	49025.40
667.58	48238.88
667.68	47980.84
667.77	45841.63
667.87	44840.28
667.96	42433.81
668.06	41481.10
668.15	41308.96
668.25	41728.08
668.34	42144.74
668.44	43133.91
668.53	43698.84
668.63	44673.37
668.72	45256.94
668.82	45723.26
668.91	46379.22
669.01	46002.50
669.10	44841.09
669.20	45909.62
669.29	45660.49
669.39	46197.87
669.48	46651.70
669.58	46939.24
669.67	45200.41
669.77	42759.03
669.86	39813.02
669.96	37755.84
670.05	35515.57
670.15	36569.76
670.24	37237.29
670.34	39296.32
670.43	40160.05
670.53	40650.34
670.62	38047.47
670.72	34518.82
670.81	30212.86
670.91	26414.09
671.00	22741.77
671.10	21342.39
671.19	21024.65
671.29	21757.93
671.38	22339.96
671.48	22833.73
671.57	23169.80
671.67	23923.86
671.76	24482.24
671.86	25378.22
671.95	24844.52
672.04	25775.53
672.14	25908.34
672.23	26037.26
672.33	25769.59
672.42	25910.08
672.52	25968.14
672.61	26045.14
672.71	25753.10
672.80	26342.61
672.90	26677.97
672.99	27419.43
673.09	27924.16
673.18	29199.53
673.28	29850.89
673.37	31631.39
673.46	32860.58
673.56	34598.28
673.65	35615.92
673.75	37356.28
673.84	38454.91
673.94	40546.81
674.03	42355.68
674.13	45003.19
674.22	47732.72
674.32	51241.71
674.41	51829.38
674.50	51843.41
674.60	49863.94
674.69	47722.18
674.79	43858.99
674.88	40555.72
674.98	37627.13
675.07	37368.26
675.17	36627.51
675.26	36439.30
675.35	36083.88
675.45	36532.90
675.54	36178.08
675.64	36878.69
675.73	36548.87
675.83	37125.58
675.92	36846.03
676.01	35705.00
676.11	34122.74
676.20	32743.74
676.30	31054.58
676.39	30786.40
676.49	30369.23
676.58	30685.13
676.67	30920.44
676.77	32084.81
676.86	32212.40
676.96	32833.55
677.05	33182.73
677.15	34104.31
677.24	34214.59
677.33	34256.99
677.43	33661.64
677.52	33863.37
677.62	33975.90
677.71	34477.35
677.80	34499.06
677.90	35171.20
677.99	33238.64
678.09	31810.59
678.18	29744.39
678.27	27205.73
678.37	25212.13
678.46	24892.75
678.56	25638.93
678.65	26563.79
678.74	27679.83
678.84	28999.85
678.93	27425.27
679.03	25627.77
679.12	22148.17
679.21	18743.73
679.31	15118.51
679.40	12555.07
679.50	11260.04
679.59	11173.21
679.68	11192.15
679.78	11630.62
679.87	11468.73
679.97	11830.30
680.06	12004.78
680.15	12263.24
680.25	12229.45
680.34	12253.92
680.44	12043.80
680.53	11961.98
680.62	11508.25
680.72	11139.52
680.81	10697.46
680.90	10491.44
681.00	9869.78
681.09	9666.21
681.19	9210.33
681.28	9075.88
681.37	8961.40
681.47	9103.94
681.56	9091.45
681.65	9340.68
681.75	9464.59
681.84	9816.73
681.94	10128.64
682.03	10420.68
682.12	10689.68
682.22	10939.84
682.31	11212.12
682.40	11520.95
682.50	11880.37
682.59	12424.00
682.68	12644.47
682.78	13253.53
682.87	13623.29
682.96	14195.09
683.06	14399.47
683.15	14823.20
683.25	15349.12
683.34	15776.32
683.43	15980.61
683.53	16347.60
683.62	16747.57
683.71	17093.99
683.81	17102.69
683.90	17331.04
683.99	17120.81
684.09	17395.14
684.18	17558.67
684.27	17660.15
684.37	17630.45
684.46	17590.52
684.55	17180.00
684.65	16474.17
684.74	15718.88
684.83	15186.10
684.93	14387.90
685.02	14406.44
685.11	14178.09
685.21	14623.93
685.30	14820.02
685.39	15261.36
685.49	15482.75
685.58	15836.02
685.67	15819.33
685.77	16341.36
685.86	16449.39
685.95	16294.87
686.05	16092.53
686.14	16239.98
686.23	15880.05
686.33	16148.13
686.42	16180.28
686.51	16278.28
686.61	15896.85
686.70	15155.69
686.79	14194.47
686.88	13211.45
686.98	12086.50
687.07	11682.84
687.16	11703.02
687.26	12240.30
687.35	12621.84
687.44	13236.33
687.54	13062.56
687.63	12564.60
687.72	11211.71
687.82	9764.61
687.91	8052.20
688.00	6639.00
688.09	5850.43
688.19	5469.82
688.28	5359.23
688.37	5440.22
688.47	5338.54
688.56	5338.54
688.65	5318.27
688.74	5282.53
688.84	5307.62
688.93	5340.80
689.02	5254.47
689.12	5326.97
689.21	5169.59
689.30	5069.75
689.39	4813.96
689.49	4724.25
689.58	4458.33
689.67	4280.46
689.77	3966.51
689.86	3785.16
689.95	3483.19
690.04	3315.35
690.14	3137.08
690.23	3067.45
690.32	2987.27
690.42	3026.80
690.51	2977.95
690.60	2968.63
690.69	2956.55
690.79	2894.39
690.88	2863.27
690.97	2834.90
691.06	2792.92
691.16	2835.92
691.25	2785.85
691.34	2791.28
691.43	2801.72
691.53	2791.38
691.62	2715.91
691.71	2702.29
691.80	2672.09
691.90	2616.38
691.99	2623.24
692.08	2617.30
692.18	2712.43
692.27	2773.26
692.36	2742.84
692.45	2746.84
692.55	2715.71
692.64	2766.29
692.73	2705.57
692.82	2732.20
692.91	2712.53
693.01	2727.79
693.10	2752.98
693.19	2729.02
693.28	2676.18
693.38	2710.08
693.47	2671.27
693.56	2632.05
693.65	2622.01
693.75	2678.33
693.84	2699.02
693.93	2729.02
694.02	2724.11
694.12	2754.72
694.21	2744.38
694.30	2807.36
